Time [d]	target cell [K]
19.0006 296.326
19.0013 296.347
19.002 296.344
19.0027 296.332
19.0034 296.344
19.0041 296.329
19.0048 296.348
19.0055 296.344
19.0062 296.345
19.0069 296.347
19.0075 296.337
19.0082 296.328
19.0089 296.338
19.0096 296.325
19.0103 296.33
19.011 296.328
19.0117 296.327
19.0124 296.327
19.0131 296.328
19.0138 296.346
19.0145 296.32
19.0152 296.311
19.0159 296.337
19.0166 296.329
19.0173 296.305
19.018 296.331
19.0187 296.329
19.0194 296.328
19.0201 296.316
19.0208 296.309
19.0215 296.311
19.0222 296.326
19.0229 296.325
19.0236 296.326
19.0242 296.327
19.0249 296.309
19.0256 296.341
19.0263 296.327
19.027 296.331
19.0277 296.332
19.0284 296.31
19.0291 296.312
19.0298 296.31
19.0305 296.309
19.0312 296.311
19.0319 296.291
19.0326 296.311
19.0333 296.308
19.034 296.305
19.0347 296.312
19.0354 296.313
19.0361 296.308
19.0367 296.321
19.0374 296.293
19.0381 296.307
19.0388 296.293
19.0395 296.307
19.0402 296.294
19.0409 296.295
19.0416 296.308
19.0423 296.31
19.043 296.305
19.0437 296.31
19.0444 296.294
19.0451 296.297
19.0458 296.291
19.0465 296.289
19.0472 296.309
19.0479 296.304
19.0486 296.287
19.0492 296.347
19.0499 296.359
19.0506 296.35
19.0513 296.363
19.052 296.392
19.0527 296.4
19.0534 296.415
19.0541 296.4
19.0548 296.419
19.0555 296.434
19.0562 296.432
19.0569 296.436
19.0576 296.439
19.0583 296.458
19.059 296.453
19.0597 296.459
19.0604 296.445
19.0611 296.439
19.0618 296.438
19.0625 296.43
19.0632 296.402
19.0639 296.421
19.0646 296.402
19.0653 296.401
19.066 296.401
19.0667 296.394
19.0674 296.404
19.0681 296.392
19.0688 296.401
19.0695 296.403
19.0702 296.401
19.0709 296.396
19.0716 296.376
19.0722 296.365
19.0729 296.383
19.0736 296.373
19.0743 296.381
19.075 296.38
19.0757 296.384
19.0764 296.379
19.0771 296.368
19.0778 296.382
19.0785 296.363
19.0792 296.364
19.0799 296.366
19.0806 296.363
19.0813 296.364
19.082 296.344
19.0827 296.346
19.0834 296.351
19.0841 296.356
19.0848 296.348
19.0855 296.347
19.0862 296.344
19.0869 296.345
19.0875 296.324
19.0882 296.344
19.0889 296.346
19.0896 296.328
19.0903 296.335
19.091 296.341
19.0917 296.334
19.0924 296.346
19.0931 296.347
19.0938 296.327
19.0945 296.355
19.0952 296.365
19.0959 296.344
19.0966 296.347
19.0973 296.336
19.098 296.362
19.0987 296.352
19.0994 296.357
19.1 296.36
19.1007 296.363
19.1014 296.358
19.1021 296.365
19.1028 296.345
19.1036 296.36
19.1043 296.362
19.105 296.347
19.1057 296.34
19.1064 296.343
19.1071 296.348
19.1078 296.348
19.1085 296.34
19.1092 296.345
19.1099 296.344
19.1106 296.346
19.1113 296.327
19.112 296.365
19.1127 296.346
19.1133 296.346
19.114 296.346
19.1147 296.381
19.1154 296.345
19.1161 296.359
19.1168 296.345
19.1175 296.339
19.1182 296.328
19.1189 296.324
19.1196 296.329
19.1203 296.326
19.121 296.324
19.1217 296.333
19.1224 296.343
19.1231 296.326
19.1238 296.307
19.1245 296.327
19.1252 296.326
19.1258 296.323
19.1265 296.325
19.1272 296.326
19.1279 296.308
19.1286 296.297
19.1293 296.288
19.13 296.292
19.1307 296.292
19.1314 296.279
19.1321 296.288
19.1328 296.286
19.1335 296.271
19.1342 296.266
19.1349 296.268
19.1356 296.262
19.1363 296.251
19.137 296.244
19.1377 296.253
19.1384 296.225
19.1391 296.195
19.1397 296.186
19.1404 296.125
19.1411 296.069
19.1418 296.052
19.1425 296.034
19.1432 296.051
19.1439 296.048
19.1448 296.047
19.1455 296.062
19.1462 296.053
19.1469 296.077
19.1475 296.07
19.1483 296.067
19.149 296.069
19.1497 296.068
19.1504 296.068
19.1511 296.048
19.1518 296.048
19.1525 296.052
19.1532 296.051
19.1539 296.072
19.1546 296.052
19.1553 296.072
19.1559 296.085
19.1566 296.075
19.1573 296.106
19.158 296.115
19.1587 296.121
19.1594 296.136
19.1601 296.144
19.1608 296.179
19.1615 296.143
19.1622 296.176
19.1629 296.139
19.1636 296.021
19.1643 295.901
19.165 295.893
19.1657 295.995
19.1664 295.921
19.1671 295.516
19.1678 294.38
19.1684 289.378
19.1691 274.377
19.1698 273.164
19.1705 270.918
19.1712 271.112
19.1719 270.071
19.1726 266.948
19.1733 267.562
19.174 267.215
19.1747 266.414
19.1754 263.409
19.1761 259.639
19.1768 254.033
19.1775 245.112
19.1782 235.738
19.1789 228.915
19.1796 233.013
19.1803 228.446
19.1809 222.916
19.1816 217.187
19.1823 212.763
19.183 211.592
19.1837 208.203
19.1844 206.316
19.1851 201.622
19.1858 193.948
19.1868 183.639
19.1875 172.625
19.1882 163.243
19.1889 155.174
19.1896 145.181
19.1903 134.203
19.191 123.827
19.1917 113.472
19.1924 103.033
19.1931 92.2582
19.1938 81.3254
19.1945 72.4102
19.1952 66.0212
19.1959 60.4174
19.1966 55.46
19.1973 51.5032
19.198 48.5405
19.1986 45.9713
19.1993 43.8836
19.2 41.8605
19.2007 40.1837
19.2014 38.5865
19.2021 37.2091
19.2028 35.9806
19.2035 34.9491
19.2042 33.9669
19.2049 33.2072
19.2056 32.5444
19.2063 32.0638
19.207 31.7558
19.2077 31.3309
19.2084 31.0007
19.2091 30.72
19.2098 30.4891
19.2105 30.2993
19.2111 30.1161
19.2118 29.8829
19.2125 29.6985
19.2132 29.4824
19.2139 29.2459
19.2146 28.991
19.2153 28.753
19.216 28.6021
19.2167 28.4715
19.2174 28.3467
19.2181 28.1562
19.2188 28.0635
19.2195 27.879
19.2202 27.7365
19.2209 27.5839
19.2216 27.4868
19.2223 27.3517
19.223 27.1172
19.2236 26.9205
19.2243 24.5779
19.225 24.5367
19.2257 24.5266
19.2264 24.4916
19.2271 24.4503
19.2278 24.4175
19.2288 24.4126
19.2295 24.3542
19.2302 24.4879
19.2309 24.3424
19.2316 24.334
19.2323 24.3137
19.233 24.2928
19.2337 24.2923
19.2344 24.2987
19.2351 24.2474
19.2358 24.1895
19.2365 24.2382
19.2372 24.226
19.2379 24.2237
19.2386 24.26
19.2393 24.2363
19.24 24.2625
19.2406 24.221
19.2413 24.1823
19.242 24.2136
19.2427 24.2575
19.2434 24.2254
19.2441 24.2242
19.2448 24.2232
19.2455 24.2243
19.2462 24.2498
19.2469 24.2292
19.2476 24.2517
19.2483 24.2655
19.249 24.2222
19.2497 24.2993
19.2504 24.1951
19.2511 24.2239
19.2518 24.2207
19.2525 24.2619
19.2532 24.2279
19.2539 24.2588
19.2545 24.2208
19.2552 24.2642
19.2559 24.2451
19.2566 24.2227
19.2573 24.2597
19.258 24.2669
19.2587 24.2627
19.2594 24.2627
19.2601 24.2621
19.2608 24.2488
19.2615 24.2553
19.2622 24.2646
19.2629 24.2633
19.2636 24.2258
19.2643 24.2317
19.265 24.2249
19.2657 24.2624
19.2664 24.2891
19.267 24.2461
19.2677 24.2207
19.2684 24.2226
19.2691 24.2594
19.2701 24.2603
19.2708 24.2232
19.2714 24.2304
19.2721 24.2321
19.2728 24.217
19.2735 24.2584
19.2742 24.254
19.2749 24.2195
19.2756 24.2003
19.2763 24.2252
19.277 24.2326
19.2777 24.233
19.2784 24.2186
19.2791 24.2552
19.2798 24.2537
19.2805 24.2185
19.2812 24.2283
19.2819 24.2185
19.2826 24.2239
19.2833 24.2282
19.2839 24.2902
19.2846 24.2216
19.2853 24.2338
19.286 24.1991
19.2867 24.1865
19.2874 24.1859
19.2881 24.2235
19.2888 24.255
19.2895 24.2197
19.2902 24.2454
19.2909 24.1874
19.2916 24.228
19.2923 24.1835
19.293 24.2279
19.2937 24.1901
19.2944 24.1853
19.2951 24.22
19.2958 24.1854
19.2964 24.2206
19.2971 24.1968
19.2978 24.2228
19.2985 24.2218
19.2992 24.2199
19.2999 24.2261
19.3006 24.2249
19.3013 24.2309
19.302 24.2196
19.3027 24.198
19.3034 24.1813
19.3041 24.2086
19.3048 24.2214
19.3055 24.2232
19.3062 24.2178
19.3069 24.2043
19.3076 24.223
19.3083 24.1831
19.3089 24.2201
19.3096 24.2214
19.3103 24.1833
19.311 24.1812
19.312 24.218
19.3127 24.1844
19.3134 24.1806
19.3141 24.1813
19.3147 24.2203
19.3154 24.1932
19.3161 24.2193
19.3168 24.1902
19.3175 24.1746
19.3182 24.2182
19.3189 24.1789
19.3196 24.1853
19.3203 24.1481
19.321 24.1497
19.3217 24.2233
19.3224 24.1868
19.3231 24.2097
19.3238 24.1815
19.3245 24.1826
19.3252 24.1845
19.3259 24.2236
19.3266 24.1811
19.3272 24.1819
19.3279 24.188
19.3286 24.2035
19.3293 24.1833
19.33 24.1878
19.3307 24.1845
19.3314 24.1646
19.3321 24.1861
19.3328 24.1506
19.3335 24.182
19.3342 24.1686
19.3349 24.1793
19.3356 24.1808
19.3363 24.1835
19.337 24.1807
19.3377 24.184
19.3384 24.1578
19.3391 24.1812
19.3397 24.1876
19.3404 24.1777
19.3411 24.1813
19.3418 24.1776
19.3425 24.1851
19.3432 24.2158
19.3439 24.1842
19.3446 24.1819
19.3453 24.2035
19.346 24.1839
19.3467 24.1862
19.3474 24.1791
19.3481 24.1978
19.3488 24.1779
19.3495 24.1791
19.3502 24.1842
19.3509 24.1554
19.3516 24.1444
19.3522 24.1799
19.3529 24.1414
19.3539 24.183
19.3546 24.1832
19.3553 24.149
19.356 24.1827
19.3567 24.1475
19.3574 24.1826
19.3581 24.1515
19.3588 24.1756
19.3595 24.1816
19.3602 24.1826
19.3608 24.1776
19.3615 24.1678
19.3622 24.1819
19.3629 24.1841
19.3636 24.1878
19.3643 24.1785
19.365 24.1872
19.3657 24.2118
19.3664 24.1842
19.3671 24.1862
19.3678 24.184
19.3685 24.1809
19.3692 24.1775
19.3699 24.1614
19.3706 24.1432
19.3713 24.1722
19.372 24.1839
19.3727 24.1844
19.3733 24.186
19.374 24.1789
19.3747 24.1405
19.3754 24.1557
19.3761 24.1516
19.3768 24.1523
19.3775 24.1466
19.3782 24.1549
19.3789 24.15
19.3796 24.153
19.3803 24.1478
19.381 24.176
19.3817 24.2139
19.3824 24.1802
19.3831 24.1786
19.3838 24.1441
19.3845 24.1735
19.3852 24.1821
19.3858 24.2299
19.3865 24.2197
19.3872 24.1877
19.3879 24.1774
19.3886 24.1791
19.3893 24.1502
19.39 24.1543
19.3907 24.1842
19.3914 24.151
19.3921 24.149
19.3928 24.1464
19.3935 24.1503
19.3942 24.1734
19.3951 24.147
19.3958 24.174
19.3965 24.1876
19.3972 24.1823
19.3979 24.1822
19.3986 24.1842
19.3993 24.1493
19.4 24.191
19.4007 24.1441
19.4014 24.1538
19.4021 24.1416
19.4028 24.1562
19.4035 24.1512
19.4042 24.1636
19.4049 24.1445
19.4056 24.1662
19.4062 24.1486
19.4069 24.1704
19.4076 24.1921
19.4083 24.1833
19.409 24.1498
19.4097 24.1707
19.4104 24.1142
19.4111 24.1869
19.4118 24.1498
19.4125 24.1464
19.4132 24.1846
19.4139 24.1511
19.4146 24.1479
19.4153 24.1526
19.416 24.1847
19.4167 24.1899
19.4174 24.1112
19.4181 24.1828
19.4187 24.1834
19.4194 24.1797
19.4201 24.1854
19.4208 24.151
19.4215 24.1415
19.4222 24.1108
19.4229 24.185
19.4236 24.1879
19.4243 24.1444
19.425 24.1755
19.4257 24.1487
19.4264 24.1783
19.4271 24.1485
19.4278 24.1528
19.4285 24.1483
19.4292 24.155
19.4299 24.1477
19.4306 24.1428
19.4312 24.1503
19.4319 24.1466
19.4326 24.1858
19.4333 24.1755
19.434 24.1389
19.4347 24.1821
19.4354 24.1723
19.4361 24.1546
19.4371 24.1847
19.4378 24.1786
19.4385 24.1893
19.4392 24.1527
19.4398 24.1521
19.4405 24.1591
19.4412 24.1472
19.4419 24.1842
19.4426 24.1522
19.4433 24.1481
19.444 24.1844
19.4447 24.1554
19.4454 24.1532
19.4461 24.1867
19.4468 24.1434
19.4475 24.1767
19.4482 24.179
19.4489 24.1879
19.4496 24.1403
19.4503 24.121
19.451 24.1868
19.4517 24.1515
19.4523 24.1752
19.453 24.1939
19.4537 24.1536
19.4544 24.1858
19.4551 24.1889
19.4558 24.1517
19.4565 24.1513
19.4572 24.2157
19.4579 24.1457
19.4586 24.1549
19.4593 24.1887
19.46 24.188
19.4607 24.1554
19.4614 24.1846
19.4621 24.1522
19.4628 24.1458
19.4635 24.1901
19.4642 24.1796
19.4648 24.1479
19.4655 24.2182
19.4662 24.1503
19.4669 24.1489
19.4676 24.1882
19.4683 24.1805
19.469 24.1501
19.4697 24.1655
19.4704 24.1554
19.4711 24.1642
19.4718 24.1912
19.4725 24.1645
19.4732 24.1536
19.4739 24.1607
19.4746 24.1505
19.4753 24.1641
19.476 24.1429
19.4767 24.1657
19.4773 24.1562
19.478 24.1434
19.479 24.1488
19.4797 24.1467
19.4804 24.182
19.4811 24.1914
19.4818 24.1876
19.4825 24.1712
19.4832 24.154
19.4839 24.1879
19.4846 24.1516
19.4853 24.1516
19.486 24.1193
19.4867 24.1586
19.4873 24.1461
19.488 24.1727
19.4887 24.1472
19.4894 24.1463
19.4901 24.189
19.4908 24.1899
19.4915 24.1502
19.4922 24.1729
19.4929 24.1842
19.4936 24.1517
19.4943 24.115
19.495 24.177
19.4957 24.148
19.4964 24.1487
19.4971 24.1825
19.4978 24.1493
19.4985 24.1828
19.4992 24.1857
19.4998 24.1857
19.5005 24.1854
19.5012 24.1515
19.5019 24.1472
19.5026 24.1494
19.5033 24.149
19.504 24.1856
19.5047 24.1855
19.5054 24.1798
19.5061 24.1895
19.5068 24.1559
19.5075 24.1841
19.5082 24.148
19.5089 24.1479
19.5096 24.1523
19.5103 24.1848
19.511 24.1509
19.5117 24.1508
19.5123 24.1222
19.513 24.1895
19.5137 24.1262
19.5144 24.1115
19.5151 24.1605
19.5158 24.1671
19.5165 24.1585
19.5172 24.186
19.5179 24.1543
19.5186 24.1501
19.5193 24.158
19.5203 24.1642
19.521 24.1845
19.5217 24.1814
19.5223 24.1487
19.523 24.1385
19.5237 24.1465
19.5244 24.1354
19.5251 24.1455
19.5258 24.155
19.5265 24.1479
19.5272 24.1889
19.5279 24.1508
19.5286 24.156
19.5293 24.1537
19.53 24.1488
19.5307 24.1551
19.5314 24.1593
19.5321 24.1553
19.5328 24.1535
19.5335 24.1518
19.5342 24.1518
19.5348 24.1836
19.5355 24.1685
19.5362 24.1494
19.5369 24.19
19.5376 24.1882
19.5383 24.1657
19.539 24.1884
19.5397 24.1303
19.5404 24.1765
19.5411 24.1584
19.5418 24.1514
19.5425 24.1548
19.5432 24.1499
19.5439 24.1811
19.5446 24.1882
19.5453 24.1519
19.546 24.182
19.5467 24.1623
19.5473 24.153
19.548 24.1774
19.5487 24.1874
19.5494 24.1879
19.5501 24.1523
19.5508 24.1743
19.5515 24.1154
19.5522 24.1296
19.5529 24.1813
19.5536 24.1866
19.5543 24.1443
19.555 24.1737
19.5557 24.1861
19.5564 24.1856
19.5571 24.1903
19.5578 24.149
19.5585 24.15
19.5592 24.1643
19.5598 24.1528
19.5605 24.1744
19.5612 24.1845
19.5622 24.1527
19.5629 24.1636
19.5636 24.1873
19.5643 24.1993
19.565 24.1545
19.5657 24.1495
19.5664 24.1858
19.5671 24.1608
19.5678 24.1476
19.5684 24.1494
19.5691 24.1455
19.5698 24.1495
19.5705 24.1909
19.5712 24.1762
19.5719 24.1877
19.5726 24.1614
19.5733 24.1544
19.574 24.1192
19.5747 24.1789
19.5754 24.1472
19.5761 24.155
19.5768 24.1317
19.5775 24.1466
19.5782 24.1818
19.5789 24.1237
19.5796 24.1545
19.5803 24.1779
19.5809 24.1527
19.5816 24.1886
19.5823 24.1543
19.583 24.177
19.5837 24.1471
19.5844 24.1917
19.5851 24.1544
19.5858 24.1895
19.5865 24.1563
19.5872 24.1356
19.5879 24.1464
19.5886 24.174
19.5893 24.1471
19.59 24.1756
19.5907 24.1521
19.5914 24.1528
19.5921 24.1951
19.5928 24.1962
19.5935 24.1526
19.5942 24.1468
19.5948 24.1553
19.5955 24.155
19.5962 24.1516
19.5969 24.1565
19.5976 24.1171
19.5983 24.1206
19.599 24.1852
19.5997 24.1792
19.6004 24.1483
19.6011 24.1594
19.6018 24.1134
19.6025 24.1529
19.6032 24.1485
19.6041 24.1478
19.6048 24.1884
19.6055 24.1725
19.6062 24.1483
19.6069 24.1489
19.6076 24.1503
19.6083 24.1679
19.609 24.1905
19.6097 24.1653
19.6104 24.1868
19.6111 24.1525
19.6118 24.1867
19.6125 24.1772
19.6132 24.2295
19.6139 24.1765
19.6146 24.1854
19.6153 24.1492
19.6159 24.1517
19.6166 24.1726
19.6173 24.1884
19.618 24.1687
19.6187 24.1439
19.6194 24.1639
19.6201 24.1837
19.6208 24.1614
19.6215 24.1534
19.6222 24.1707
19.6229 24.1165
19.6236 24.1731
19.6243 24.1488
19.625 24.1711
19.6257 24.1515
19.6264 24.1703
19.6271 24.1508
19.6278 24.1717
19.6284 24.1535
19.6291 24.1443
19.6298 24.1537
19.6305 24.1835
19.6312 24.1872
19.6319 24.1854
19.6326 24.1772
19.6333 24.1206
19.634 24.1561
19.6347 24.147
19.6354 24.1845
19.6361 24.1463
19.6368 24.1595
19.6375 24.1474
19.6382 24.147
19.6389 24.1493
19.6396 24.1886
19.6403 24.1872
19.6409 24.1722
19.6416 24.151
19.6423 24.174
19.643 24.1502
19.6437 24.1454
19.6444 24.1908
19.6454 24.1513
19.6461 24.1847
19.6468 24.151
19.6475 24.1861
19.6482 24.2253
19.6489 24.1499
19.6496 24.15
19.6503 24.1664
19.6509 24.1536
19.6516 24.1642
19.6523 24.1128
19.653 24.1505
19.6537 24.1902
19.6544 24.1528
19.6551 24.1487
19.6558 24.1518
19.6565 24.1515
19.6572 24.1603
19.6579 24.1695
19.6586 24.1888
19.6593 24.1425
19.66 24.186
19.6607 24.1623
19.6614 24.1481
19.6621 24.1679
19.6628 24.1923
19.6635 24.1912
19.6642 24.1561
19.6648 24.1575
19.6655 24.1474
19.6662 24.1857
19.6669 24.1552
19.6676 24.1486
19.6683 24.147
19.669 24.165
19.6697 24.1508
19.6704 24.1455
19.6711 24.1842
19.6718 24.1857
19.6725 24.1886
19.6732 24.1517
19.6739 24.1478
19.6746 24.1673
19.6753 24.1498
19.676 24.1691
19.6767 24.1485
19.6773 24.1675
19.678 24.1539
19.6787 24.1708
19.6794 24.1875
19.6801 24.1713
19.6808 24.1566
19.6815 24.1926
19.6822 24.1541
19.6829 24.1531
19.6836 24.1569
19.6843 24.153
19.685 24.1828
19.6857 24.1766
19.6864 24.1915
19.6872 24.1846
19.6879 24.1982
19.6886 24.1874
19.6893 24.1561
19.69 24.1112
19.6907 24.1884
19.6914 24.1866
19.6921 24.1855
19.6928 24.1527
19.6935 24.1516
19.6942 24.1522
19.6949 24.1485
19.6956 24.1564
19.6963 24.1908
19.697 24.118
19.6977 24.1412
19.6984 24.1129
19.6991 24.1575
19.6997 24.184
19.7004 24.1925
19.7011 24.1505
19.7018 24.1615
19.7025 24.1507
19.7032 24.1747
19.7039 24.1853
19.7046 24.1464
19.7053 24.1097
19.706 24.1711
19.7067 24.1469
19.7074 24.1895
19.7081 24.1495
19.7088 24.19
19.7095 24.1526
19.7102 24.1347
19.7109 24.1813
19.7116 24.1715
19.7122 24.1922
19.7129 24.1537
19.7136 24.1548
19.7143 24.1887
19.715 24.1542
19.7157 24.1651
19.7164 24.1448
19.7171 24.1541
19.7178 24.1861
19.7185 24.1553
19.7192 24.155
19.7199 24.1533
19.7206 24.1514
19.7213 24.1557
19.722 24.1909
19.7227 24.155
19.7234 24.1539
19.7241 24.1491
19.7247 24.1882
19.7254 24.1582
19.7261 24.1103
19.7268 24.1767
19.7275 24.1522
19.7282 24.1485
19.7292 24.164
19.7299 24.117
19.7306 24.1772
19.7313 24.1532
19.732 24.1592
19.7327 24.1912
19.7334 24.1881
19.7341 24.1813
19.7347 24.1858
19.7354 24.1542
19.7361 24.1479
19.7368 24.1523
19.7375 24.1769
19.7382 24.1456
19.7389 24.1519
19.7396 24.1855
19.7403 24.1455
19.741 24.1439
19.7417 24.1283
19.7424 24.1772
19.7431 24.1761
19.7438 24.1449
19.7445 24.1455
19.7452 24.1522
19.7459 24.1511
19.7466 24.1458
19.7472 24.1848
19.7479 24.185
19.7486 24.1601
19.7493 24.1509
19.75 24.1893
19.7507 24.1488
19.7514 24.1601
19.7521 24.188
19.7528 24.1574
19.7535 24.147
19.7542 24.1757
19.7549 24.1843
19.7556 24.1853
19.7563 24.1511
19.757 24.1849
19.7577 24.1499
19.7584 24.1864
19.7591 24.1485
19.7597 24.183
19.7604 24.1843
19.7611 24.1873
19.7618 24.1568
19.7625 24.1451
19.7632 24.1816
19.7639 24.1492
19.7646 24.1756
19.7653 24.148
19.766 24.1524
19.7667 24.1863
19.7674 24.1847
19.7681 24.1124
19.7688 24.18
19.7695 24.1871
19.7704 24.1753
19.7711 24.1885
19.7718 24.1556
19.7725 24.1453
19.7732 24.1493
19.7739 24.1747
19.7746 24.1496
19.7753 24.1477
19.776 24.1494
19.7767 24.1784
19.7774 24.1502
19.7781 24.1915
19.7788 24.128
19.7795 24.1831
19.7802 24.1438
19.7809 24.1781
19.7816 24.1465
19.7822 24.184
19.7829 24.1614
19.7836 24.1908
19.7843 24.1577
19.785 24.1544
19.7857 24.1795
19.7864 24.1473
19.7871 24.1503
19.7878 24.1463
19.7885 24.1416
19.7892 24.1881
19.7899 24.1811
19.7906 24.1539
19.7913 24.1506
19.792 24.1882
19.7927 24.1475
19.7934 24.1794
19.7941 24.15
19.7947 24.1454
19.7954 24.1855
19.7961 24.1522
19.7968 24.1408
19.7975 24.1869
19.7982 24.1865
19.7989 24.1741
19.7996 24.1714
19.8003 24.1862
19.801 24.1767
19.8017 24.145
19.8024 24.1537
19.8031 24.1783
19.8038 24.1481
19.8045 24.1522
19.8052 24.1811
19.8059 24.1878
19.8066 24.144
19.8072 24.1463
19.8079 24.1454
19.8086 24.1069
19.8093 24.1797
19.81 24.1477
19.8107 24.186
19.8114 24.1863
19.8124 24.1817
19.8131 24.1718
19.8138 24.1446
19.8145 24.1448
19.8152 24.1514
19.8159 24.1852
19.8166 24.1481
19.8172 24.1754
19.8179 24.1809
19.8186 24.1439
19.8193 24.1068
19.82 24.1664
19.8207 24.1525
19.8214 24.1424
19.8221 24.1829
19.8228 24.1478
19.8235 24.1132
19.8242 24.1471
19.8249 24.1481
19.8256 24.1675
19.8263 24.179
19.827 24.1648
19.8277 24.1806
19.8284 24.1847
19.8291 24.1134
19.8297 24.1432
19.8304 24.1436
19.8311 24.1857
19.8318 24.1829
19.8325 24.1736
19.8332 24.1849
19.8339 24.1885
19.8346 24.1142
19.8353 24.1447
19.836 24.1825
19.8367 24.17
19.8374 24.1825
19.8381 24.1683
19.8388 24.1491
19.8395 24.1825
19.8402 24.1537
19.8409 24.183
19.8416 24.1852
19.8422 24.1698
19.8429 24.1534
19.8436 24.1569
19.8443 24.1471
19.845 24.1855
19.8457 24.186
19.8464 24.1809
19.8471 24.1835
19.8478 24.1501
19.8485 24.219
19.8492 24.1619
19.8499 24.1456
19.8506 24.1678
19.8513 24.145
19.852 24.1644
19.8527 24.1518
19.8534 24.1472
19.8543 24.1482
19.855 24.1789
19.8557 24.1482
19.8564 24.1814
19.8571 24.1805
19.8578 24.1625
19.8585 24.1864
19.8592 24.1605
19.8599 24.1848
19.8606 24.1714
19.8613 24.1792
19.862 24.1679
19.8627 24.1424
19.8634 24.1393
19.8641 24.1852
19.8647 24.1442
19.8654 24.1829
19.8661 24.1596
19.8668 24.1793
19.8675 24.1427
19.8682 24.1833
19.8689 24.2081
19.8696 24.1159
19.8703 24.1533
19.871 24.1861
19.8717 24.1846
19.8724 24.1858
19.8731 24.1465
19.8738 24.1851
19.8745 24.1565
19.8752 24.2194
19.8759 24.1559
19.8766 24.1496
19.8772 24.1812
19.8779 24.1819
19.8786 24.185
19.8793 24.1794
19.88 24.1838
19.8807 24.2156
19.8814 24.1954
19.8821 24.2171
19.8828 24.1473
19.8835 24.1827
19.8842 24.1481
19.8849 24.1832
19.8856 24.1831
19.8863 24.145
19.887 24.1795
19.8877 24.1824
19.8884 24.1115
19.8891 24.186
19.8897 24.1789
19.8904 24.177
19.8911 24.1868
19.8918 24.1457
19.8925 24.1513
19.8932 24.184
19.8939 24.1595
19.8946 24.1838
19.8955 24.1124
19.8962 24.1457
19.8969 24.1455
19.8976 24.1881
19.8983 24.1539
19.899 24.1802
19.8997 24.1545
19.9004 24.1815
19.9011 24.1477
19.9018 24.157
19.9025 24.1871
19.9031 24.1773
19.9038 24.2235
19.9045 24.1488
19.9052 24.1843
19.9059 24.1854
19.9066 24.1476
19.9073 24.159
19.908 24.1502
19.9087 24.1979
19.9094 24.1907
19.9101 24.1487
19.9108 24.1451
19.9115 24.1855
19.9122 24.1832
19.9129 24.1608
19.9136 24.1497
19.9143 24.1482
19.915 24.1495
19.9156 24.1706
19.9163 24.1878
19.917 24.1632
19.9177 24.1901
19.9184 24.1649
19.9191 24.1449
19.9198 24.1658
19.9205 24.1844
19.9212 24.1692
19.9219 24.1494
19.9226 24.1837
19.9233 24.1866
19.924 24.1826
19.9247 24.1854
19.9254 24.1638
19.9261 24.1838
19.9268 24.1721
19.9275 24.1776
19.9281 24.17
19.9288 24.1804
19.9295 24.1886
19.9302 24.145
19.9309 24.1858
19.9316 24.1493
19.9323 24.1599
19.933 24.1529
19.9337 24.1574
19.9344 24.1837
19.9351 24.1787
19.9358 24.1844
19.9365 24.1422
19.9374 24.1868
19.9381 24.1482
19.9388 24.1801
19.9395 24.1488
19.9402 24.1462
19.9409 24.1855
19.9416 24.1775
19.9423 24.1813
19.943 24.1857
19.9437 24.1476
19.9444 24.1865
19.9451 24.1834
19.9458 24.1521
19.9465 24.1894
19.9472 24.1734
19.9479 24.2219
19.9486 24.1629
19.9492 24.1516
19.9499 24.1631
19.9506 24.18
19.9513 24.1579
19.952 24.1585
19.9527 24.1884
19.9534 24.1856
19.9541 24.1891
19.9548 24.1547
19.9555 24.1503
19.9562 24.159
19.9569 24.1502
19.9576 24.183
19.9583 24.1852
19.959 24.1888
19.9597 24.1859
19.9604 24.1775
19.9611 24.1493
19.9617 24.1639
19.9624 24.1567
19.9631 24.1631
19.9638 24.1901
19.9645 24.1502
19.9652 24.1477
19.9659 24.1442
19.9666 24.1851
19.9673 24.1699
19.968 24.1489
19.9687 24.1914
19.9694 24.1521
19.9701 24.1517
19.9708 24.184
19.9715 24.1687
19.9722 24.1906
19.9729 24.1627
19.9736 24.1519
19.9742 24.1738
19.9749 24.149
19.9756 24.1787
19.9763 24.186
19.977 24.1831
19.9777 24.1133
19.9784 24.1909
19.9794 24.1884
19.9801 24.2089
19.9808 24.1857
19.9814 24.1693
19.9821 24.1878
19.9828 24.1498
19.9835 24.1463
19.9842 24.1468
19.9849 24.1518
19.9856 24.1731
19.9863 24.1528
19.987 24.1914
19.9877 24.1918
19.9884 24.1848
19.9891 24.2318
19.9898 24.1441
19.9905 24.1836
19.9912 24.1661
19.9919 24.184
19.9926 24.1889
19.9933 24.1902
19.9939 24.187
19.9946 24.1874
19.9953 24.1444
19.996 24.1505
19.9967 24.1908
19.9974 24.1464
19.9981 24.172
19.9988 24.1528
19.9995 24.1323