Time [d]	target cell [K]
25.0003 292.142
25.001 292.147
25.0017 292.126
25.0024 292.127
25.0031 292.11
25.0038 292.118
25.0045 292.129
25.0052 292.125
25.0059 292.106
25.0066 292.118
25.0073 292.088
25.008 292.098
25.0087 292.087
25.0094 292.1
25.01 292.051
25.0107 292.058
25.0114 292.054
25.0121 292.058
25.0128 292.035
25.0135 292.052
25.0142 292.036
25.0149 292.029
25.0156 292.048
25.0163 292.031
25.017 292.031
25.0177 292.013
25.0184 292.014
25.0191 292.016
25.0198 292.013
25.0205 291.996
25.0212 291.986
25.0219 291.977
25.0225 291.997
25.0232 291.98
25.0242 291.977
25.0249 291.977
25.0256 291.973
25.0263 291.957
25.027 291.963
25.0277 291.958
25.0284 291.938
25.0291 291.94
25.0298 291.945
25.0305 291.922
25.0312 291.921
25.0319 291.921
25.0326 291.921
25.0333 291.902
25.034 291.92
25.0347 291.922
25.0353 291.907
25.036 291.909
25.0367 291.905
25.0374 291.886
25.0381 291.882
25.0388 291.885
25.0395 291.884
25.0402 291.872
25.0409 291.882
25.0416 291.867
25.0423 291.851
25.043 291.871
25.0437 291.851
25.0444 291.843
25.0451 291.831
25.0458 291.842
25.0465 291.831
25.0472 291.825
25.0479 291.832
25.0486 291.833
25.0492 291.835
25.0499 291.813
25.0506 291.814
25.0513 291.803
25.052 291.798
25.0527 291.793
25.0534 291.791
25.0541 291.794
25.0548 291.771
25.0555 291.777
25.0562 291.759
25.0569 291.775
25.0576 291.76
25.0583 291.76
25.059 291.753
25.0597 291.739
25.0604 291.752
25.0611 291.737
25.0617 291.736
25.0624 291.733
25.0631 291.736
25.0638 291.723
25.0645 291.742
25.0654 291.72
25.0661 291.688
25.0668 291.703
25.0675 291.701
25.0682 291.683
25.0689 291.695
25.0696 291.681
25.0703 291.674
25.071 291.702
25.0717 291.664
25.0724 291.665
25.0731 291.662
25.0738 291.663
25.0745 291.663
25.0752 291.647
25.0758 291.643
25.0765 291.645
25.0772 291.628
25.0779 291.629
25.0786 291.632
25.0793 291.644
25.08 291.608
25.0807 291.61
25.0814 291.61
25.0821 291.61
25.0828 291.599
25.0835 291.591
25.0842 291.585
25.0849 291.593
25.0856 291.553
25.0863 291.553
25.087 291.574
25.0877 291.553
25.0883 291.549
25.089 291.538
25.0897 291.536
25.0904 291.521
25.0911 291.518
25.0918 291.536
25.0925 291.521
25.0932 291.502
25.0939 291.5
25.0946 291.499
25.0953 291.515
25.096 291.494
25.0967 291.481
25.0974 291.494
25.0981 291.482
25.0988 291.482
25.0995 291.463
25.1002 291.463
25.1008 291.464
25.1015 291.452
25.1022 291.442
25.1029 291.444
25.1036 291.445
25.1043 291.423
25.105 291.444
25.1057 291.437
25.1064 291.423
25.1073 291.408
25.108 291.426
25.1087 291.409
25.1094 291.408
25.1101 291.399
25.1108 291.404
25.1115 291.384
25.1122 291.37
25.1129 291.394
25.1136 291.371
25.1143 291.372
25.115 291.373
25.1156 291.368
25.1163 291.37
25.117 291.371
25.1177 291.353
25.1184 291.35
25.1191 291.352
25.1198 291.333
25.1205 291.331
25.1212 291.335
25.1219 291.331
25.1226 291.316
25.1233 291.313
25.124 291.298
25.1247 291.298
25.1254 291.298
25.1261 291.298
25.1268 291.297
25.1275 291.278
25.1281 291.279
25.1288 291.259
25.1295 291.264
25.1302 291.278
25.1309 291.275
25.1316 291.263
25.1323 291.261
25.133 291.246
25.1337 291.255
25.1344 291.239
25.1351 291.255
25.1358 291.245
25.1365 291.208
25.1372 291.221
25.1379 291.228
25.1386 291.204
25.1393 291.206
25.14 291.22
25.1406 291.204
25.1413 291.187
25.142 291.203
25.1427 291.187
25.1434 291.187
25.1441 291.169
25.1448 291.17
25.1455 291.168
25.1462 291.185
25.1469 291.183
25.1476 291.169
25.1483 291.153
25.1492 291.138
25.1499 291.135
25.1506 291.144
25.1513 291.146
25.152 291.119
25.1527 291.133
25.1534 291.124
25.1541 291.111
25.1547 291.098
25.1554 291.113
25.1561 291.111
25.1568 291.079
25.1575 291.095
25.1582 291.091
25.1589 291.094
25.1596 291.077
25.1603 291.093
25.161 291.079
25.1617 291.042
25.1624 291.048
25.1631 291.043
25.1638 291.042
25.1645 291.023
25.1652 291.031
25.1659 291.022
25.1666 291.027
25.1672 291.012
25.1679 291.003
25.1686 290.997
25.1693 291.004
25.17 291.003
25.1707 291.002
25.1714 290.988
25.1721 291
25.1728 290.97
25.1735 290.983
25.1742 290.982
25.1749 290.967
25.1756 290.975
25.1763 290.964
25.177 290.963
25.1777 290.966
25.1784 290.948
25.1791 290.949
25.1797 290.95
25.1804 290.928
25.1811 290.93
25.1818 290.928
25.1825 290.921
25.1832 290.91
25.1839 290.912
25.1846 290.91
25.1853 290.906
25.186 290.91
25.1867 290.892
25.1874 290.89
25.1881 290.894
25.1888 290.874
25.1895 290.878
25.1902 290.891
25.191 290.871
25.1917 290.876
25.1924 290.854
25.1931 290.85
25.1938 290.852
25.1944 290.854
25.1951 290.836
25.1958 290.837
25.1965 290.819
25.1972 290.828
25.1979 290.819
25.1986 290.817
25.1993 290.801
25.2 290.81
25.2007 290.804
25.2014 290.804
25.2021 290.797
25.2028 290.801
25.2035 290.783
25.2042 290.782
25.2049 290.799
25.2056 290.775
25.2063 290.786
25.2069 290.772
25.2076 290.766
25.2083 290.765
25.209 290.76
25.2097 290.754
25.2104 290.747
25.2111 290.747
25.2118 290.744
25.2125 290.755
25.2132 290.746
25.2139 290.727
25.2146 290.726
25.2153 290.729
25.216 290.71
25.2167 290.723
25.2174 290.707
25.2181 290.708
25.2188 290.71
25.2194 290.723
25.2201 290.691
25.2208 290.697
25.2215 290.692
25.2222 290.691
25.2229 290.689
25.2236 290.691
25.2243 290.691
25.225 290.672
25.2257 290.683
25.2264 290.658
25.2271 290.669
25.2278 290.653
25.2285 290.67
25.2292 290.652
25.2299 290.649
25.2306 290.637
25.2312 290.654
25.2321 290.636
25.2328 290.632
25.2334 290.634
25.2341 290.635
25.2348 290.617
25.2355 290.617
25.2362 290.617
25.2369 290.612
25.2376 290.617
25.2383 290.618
25.239 290.579
25.2397 290.598
25.2404 290.599
25.2411 290.598
25.2418 290.597
25.2425 290.599
25.2432 290.599
25.2439 290.579
25.2446 290.574
25.2453 290.592
25.2459 290.564
25.2466 290.53
25.2473 290.561
25.248 290.561
25.2487 290.558
25.2494 290.576
25.2501 290.554
25.2508 290.563
25.2515 290.555
25.2522 290.561
25.2529 290.551
25.2536 290.524
25.2543 290.504
25.255 290.505
25.2557 290.523
25.2564 290.519
25.2571 290.506
25.2578 290.506
25.2584 290.492
25.2591 290.504
25.2598 290.506
25.2605 290.489
25.2612 290.477
25.2619 290.486
25.2626 290.488
25.2633 290.481
25.264 290.473
25.2647 290.47
25.2654 290.482
25.2661 290.453
25.2668 290.467
25.2675 290.455
25.2682 290.451
25.2689 290.451
25.2696 290.451
25.2703 290.442
25.2709 290.451
25.2716 290.43
25.2723 290.432
25.273 290.44
25.2738 290.435
25.2745 290.432
25.2752 290.452
25.2759 290.429
25.2766 290.418
25.2773 290.435
25.278 290.429
25.2787 290.416
25.2794 290.412
25.2801 290.414
25.2808 290.409
25.2815 290.415
25.2822 290.389
25.2829 290.396
25.2836 290.397
25.2842 290.393
25.2849 290.379
25.2856 290.371
25.2863 290.38
25.287 290.375
25.2877 290.376
25.2884 290.374
25.2891 290.373
25.2898 290.359
25.2905 290.361
25.2912 290.373
25.2919 290.353
25.2926 290.339
25.2933 290.36
25.294 290.336
25.2947 290.357
25.2954 290.35
25.2961 290.341
25.2967 290.338
25.2974 290.339
25.2981 290.335
25.2988 290.338
25.2995 290.342
25.3002 290.355
25.3009 290.321
25.3016 290.317
25.3023 290.323
25.303 290.305
25.3037 290.32
25.3044 290.326
25.3051 290.318
25.3058 290.321
25.3065 290.287
25.3072 290.305
25.3079 290.3
25.3086 290.302
25.3092 290.285
25.3099 290.287
25.3106 290.266
25.3113 290.266
25.312 290.285
25.3127 290.288
25.3134 290.267
25.3141 290.269
25.3148 290.267
25.3157 290.267
25.3164 290.272
25.3171 290.265
25.3178 290.258
25.3185 290.253
25.3192 290.257
25.3199 290.249
25.3206 290.249
25.3213 290.232
25.322 290.244
25.3227 290.232
25.3234 290.247
25.3241 290.232
25.3247 290.239
25.3254 290.23
25.3261 290.228
25.3268 290.212
25.3275 290.213
25.3282 290.229
25.3289 290.21
25.3296 290.211
25.3303 290.209
25.331 290.211
25.3317 290.2
25.3324 290.211
25.3331 290.208
25.3338 290.195
25.3345 290.206
25.3352 290.176
25.3359 290.189
25.3366 290.177
25.3372 290.194
25.3379 290.189
25.3386 290.192
25.3393 290.174
25.34 290.187
25.3407 290.175
25.3414 290.172
25.3421 290.158
25.3428 290.174
25.3435 290.174
25.3442 290.158
25.3449 290.16
25.3456 290.145
25.3463 290.157
25.347 290.153
25.3477 290.158
25.3484 290.149
25.3491 290.138
25.3497 290.139
25.3504 290.141
25.3511 290.147
25.3518 290.139
25.3525 290.131
25.3532 290.121
25.3539 290.125
25.3546 290.121
25.3553 290.132
25.356 290.135
25.3567 290.125
25.3576 290.115
25.3583 290.118
25.359 290.12
25.3597 290.104
25.3604 290.103
25.3611 290.101
25.3618 290.101
25.3625 290.106
25.3631 290.1
25.3638 290.116
25.3645 290.112
25.3652 290.084
25.3659 290.097
25.3666 290.08
25.3673 290.086
25.368 290.085
25.3687 290.095
25.3694 290.088
25.3701 290.098
25.3708 290.086
25.3715 290.085
25.3722 290.097
25.3729 290.085
25.3736 290.085
25.3743 290.101
25.375 290.066
25.3756 290.061
25.3763 290.079
25.377 290.064
25.3777 290.088
25.3784 290.063
25.3791 290.076
25.3798 290.082
25.3805 290.083
25.3812 290.063
25.3819 290.064
25.3826 290.064
25.3833 290.066
25.384 290.06
25.3847 290.066
25.3854 290.066
25.3861 290.054
25.3868 290.081
25.3875 290.067
25.3881 290.064
25.3888 290.061
25.3895 290.068
25.3902 290.077
25.3909 290.033
25.3916 290.037
25.3923 290.068
25.393 290.051
25.3937 290.031
25.3944 290.028
25.3951 290.064
25.3958 290.041
25.3965 290.038
25.3972 290.055
25.3979 290.027
25.3986 290.066
25.3994 290.033
25.4001 290.03
25.4008 290.066
25.4014 290.029
25.4021 290.031
25.4028 290.068
25.4035 290.055
25.4042 290.063
25.4049 290.03
25.4056 290.035
25.4063 290.024
25.407 290.032
25.4077 290.068
25.4084 290.067
25.4091 290.056
25.4098 290.069
25.4105 290.041
25.4112 290.065
25.4119 290.077
25.4126 290.064
25.4133 290.052
25.4139 290.066
25.4146 290.046
25.4153 290.062
25.416 290.03
25.4167 290.039
25.4174 290.065
25.4181 290.057
25.4188 290.07
25.4195 290.058
25.4202 290.075
25.4209 290.067
25.4216 290.065
25.4223 290.084
25.423 290.066
25.4237 290.067
25.4244 290.068
25.4251 290.085
25.4258 290.082
25.4264 290.075
25.4271 290.07
25.4278 290.084
25.4285 290.098
25.4292 290.066
25.4299 290.085
25.4306 290.067
25.4313 290.068
25.432 290.072
25.4327 290.101
25.4334 290.091
25.4341 290.1
25.4348 290.082
25.4355 290.083
25.4362 290.091
25.4369 290.085
25.4376 290.103
25.4383 290.086
25.439 290.102
25.4397 290.121
25.4403 290.098
25.4412 290.103
25.4419 290.108
25.4426 290.101
25.4433 290.103
25.444 290.122
25.4447 290.102
25.4454 290.121
25.4461 290.131
25.4468 290.121
25.4475 290.121
25.4482 290.12
25.4489 290.12
25.4496 290.123
25.4503 290.14
25.451 290.102
25.4517 290.12
25.4523 290.153
25.453 290.122
25.4537 290.137
25.4544 290.14
25.4551 290.138
25.4558 290.139
25.4565 290.139
25.4572 290.137
25.4579 290.139
25.4586 290.14
25.4593 290.156
25.46 290.158
25.4607 290.144
25.4614 290.175
25.4621 290.161
25.4628 290.158
25.4635 290.16
25.4642 290.176
25.4648 290.158
25.4656 290.162
25.4662 290.189
25.4669 290.174
25.4676 290.178
25.4683 290.18
25.469 290.188
25.4697 290.194
25.4704 290.187
25.4711 290.195
25.4718 290.192
25.4725 290.194
25.4732 290.195
25.4739 290.194
25.4746 290.194
25.4753 290.206
25.476 290.194
25.4767 290.204
25.4774 290.216
25.4781 290.23
25.4788 290.212
25.4794 290.212
25.4801 290.217
25.4808 290.242
25.4815 290.232
25.4824 290.23
25.4831 290.231
25.4838 290.252
25.4845 290.247
25.4852 290.23
25.4859 290.231
25.4866 290.251
25.4873 290.269
25.488 290.243
25.4887 290.251
25.4894 290.25
25.49 290.27
25.4907 290.266
25.4914 290.266
25.4921 290.28
25.4928 290.287
25.4935 290.283
25.4942 290.301
25.4949 290.28
25.4956 290.284
25.4963 290.288
25.497 290.289
25.4977 290.302
25.4984 290.288
25.4991 290.299
25.4998 290.304
25.5005 290.302
25.5012 290.307
25.5019 290.311
25.5025 290.321
25.5032 290.301
25.5039 290.322
25.5046 290.32
25.5053 290.327
25.506 290.337
25.5067 290.35
25.5074 290.336
25.5081 290.342
25.5088 290.361
25.5095 290.358
25.5102 290.36
25.5109 290.344
25.5116 290.345
25.5123 290.362
25.513 290.376
25.5137 290.378
25.5144 290.38
25.515 290.389
25.5157 290.378
25.5164 290.397
25.5171 290.391
25.5178 290.399
25.5185 290.399
25.5192 290.401
25.5199 290.418
25.5206 290.401
25.5213 290.417
25.522 290.415
25.5227 290.414
25.5234 290.418
25.5243 290.435
25.525 290.434
25.5257 290.44
25.5264 290.432
25.5271 290.447
25.5278 290.454
25.5284 290.451
25.5291 290.471
25.5298 290.458
25.5305 290.472
25.5312 290.473
25.5319 290.472
25.5326 290.483
25.5333 290.491
25.534 290.489
25.5347 290.49
25.5354 290.49
25.5361 290.508
25.5368 290.507
25.5375 290.51
25.5382 290.506
25.5389 290.511
25.5396 290.516
25.5403 290.527
25.5409 290.516
25.5416 290.526
25.5423 290.527
25.543 290.528
25.5437 290.563
25.5444 290.578
25.5451 290.571
25.5458 290.563
25.5465 290.574
25.5472 290.582
25.5479 290.583
25.5486 290.599
25.5493 290.583
25.55 290.597
25.5507 290.582
25.5514 290.597
25.5521 290.617
25.5528 290.601
25.5534 290.617
25.5541 290.617
25.5548 290.617
25.5555 290.634
25.5562 290.636
25.5569 290.618
25.5576 290.651
25.5583 290.639
25.559 290.654
25.5597 290.651
25.5604 290.652
25.5611 290.653
25.5618 290.652
25.5625 290.671
25.5632 290.654
25.5639 290.691
25.5646 290.687
25.5653 290.673
25.5661 290.69
25.5668 290.703
25.5675 290.689
25.5682 290.692
25.5689 290.71
25.5696 290.708
25.5703 290.708
25.571 290.709
25.5717 290.71
25.5724 290.71
25.5731 290.725
25.5738 290.726
25.5745 290.73
25.5752 290.738
25.5759 290.732
25.5766 290.738
25.5773 290.749
25.578 290.755
25.5786 290.75
25.5793 290.752
25.58 290.768
25.5807 290.766
25.5814 290.767
25.5821 290.785
25.5828 290.768
25.5835 290.783
25.5842 290.785
25.5849 290.801
25.5856 290.786
25.5863 290.802
25.587 290.805
25.5877 290.802
25.5884 290.802
25.5891 290.809
25.5898 290.821
25.5905 290.813
25.5911 290.816
25.5918 290.83
25.5925 290.821
25.5932 290.843
25.5939 290.859
25.5946 290.849
25.5953 290.856
25.596 290.852
25.5967 290.854
25.5974 290.865
25.5981 290.859
25.5988 290.866
25.5995 290.874
25.6002 290.878
25.6009 290.878
25.6016 290.894
25.6023 290.892
25.603 290.888
25.6036 290.894
25.6043 290.908
25.605 290.912
25.6057 290.909
25.6064 290.895
25.6071 290.925
25.608 290.892
25.6087 290.927
25.6094 290.93
25.6101 290.931
25.6108 290.947
25.6115 290.916
25.6122 290.934
25.6129 290.966
25.6136 290.95
25.6143 290.95
25.615 290.952
25.6156 290.951
25.6163 290.967
25.617 290.953
25.6177 290.97
25.6184 290.975
25.6191 290.969
25.6198 290.971
25.6205 290.987
25.6212 290.99
25.6219 290.99
25.6226 291.006
25.6233 291.004
25.624 291.016
25.6247 291.005
25.6254 291.01
25.6261 291.022
25.6268 291.022
25.6275 291.035
25.6281 291.009
25.6288 291.025
25.6295 291.042
25.6302 291.024
25.6309 291.041
25.6316 291.04
25.6323 291.069
25.633 291.025
25.6337 291.064
25.6344 291.045
25.6351 291.053
25.6358 291.081
25.6365 291.083
25.6372 291.083
25.6379 291.093
25.6386 291.096
25.6393 291.092
25.64 291.098
25.6406 291.113
25.6413 291.098
25.642 291.097
25.6427 291.095
25.6434 291.114
25.6441 291.119
25.6448 291.117
25.6455 291.135
25.6462 291.118
25.6469 291.125
25.6476 291.127
25.6483 291.148
25.6491 291.135
25.6498 291.151
25.6505 291.154
25.6512 291.138
25.6519 291.153
25.6526 291.152
25.6533 291.174
25.654 291.162
25.6547 291.172
25.6553 291.155
25.656 291.173
25.6567 291.177
25.6574 291.173
25.6581 291.188
25.6588 291.188
25.6595 291.203
25.6602 291.192
25.6609 291.194
25.6616 291.207
25.6623 291.21
25.663 291.206
25.6637 291.203
25.6644 291.22
25.6651 291.239
25.6658 291.24
25.6665 291.214
25.6672 291.239
25.6678 291.225
25.6685 291.242
25.6692 291.244
25.6699 291.244
25.6706 291.246
25.6713 291.259
25.672 291.262
25.6727 291.245
25.6734 291.264
25.6741 291.26
25.6748 291.267
25.6755 291.269
25.6762 291.266
25.6769 291.247
25.6776 291.264
25.6783 291.298
25.679 291.284
25.6797 291.279
25.6803 291.284
25.681 291.284
25.6817 291.28
25.6824 291.295
25.6831 291.283
25.6838 291.288
25.6845 291.283
25.6852 291.304
25.6859 291.3
25.6866 291.302
25.6873 291.318
25.688 291.335
25.6887 291.335
25.6894 291.322
25.6901 291.332
25.691 291.336
25.6917 291.331
25.6923 291.334
25.693 291.338
25.6937 291.337
25.6944 291.336
25.6951 291.356
25.6958 291.334
25.6965 291.356
25.6972 291.356
25.6979 291.351
25.6986 291.371
25.6993 291.393
25.7 291.365
25.7007 291.372
25.7014 291.363
25.7021 291.371
25.7028 291.377
25.7035 291.393
25.7042 291.39
25.7048 291.374
25.7055 291.379
25.7062 291.392
25.7069 291.395
25.7076 291.389
25.7083 291.41
25.709 291.407
25.7097 291.411
25.7104 291.408
25.7111 291.41
25.7118 291.412
25.7125 291.419
25.7132 291.411
25.7139 291.426
25.7146 291.427
25.7153 291.416
25.716 291.41
25.7167 291.415
25.7173 291.408
25.718 291.434
25.7187 291.43
25.7194 291.43
25.7201 291.43
25.7208 291.431
25.7215 291.428
25.7222 291.447
25.7229 291.45
25.7236 291.447
25.7243 291.433
25.725 291.447
25.7257 291.43
25.7264 291.445
25.7271 291.446
25.7278 291.447
25.7285 291.447
25.7292 291.467
25.7298 291.461
25.7305 291.466
25.7312 291.468
25.7319 291.469
25.7328 291.471
25.7335 291.463
25.7342 291.463
25.7349 291.469
25.7356 291.483
25.7363 291.485
25.737 291.472
25.7377 291.462
25.7384 291.484
25.7391 291.483
25.7398 291.501
25.7405 291.501
25.7412 291.488
25.7419 291.486
25.7426 291.491
25.7433 291.5
25.7439 291.491
25.7446 291.502
25.7453 291.489
25.746 291.493
25.7467 291.518
25.7474 291.518
25.7481 291.505
25.7488 291.517
25.7495 291.504
25.7502 291.52
25.7509 291.52
25.7516 291.501
25.7523 291.52
25.753 291.538
25.7537 291.518
25.7544 291.519
25.7551 291.533
25.7558 291.517
25.7564 291.536
25.7571 291.518
25.7578 291.523
25.7585 291.539
25.7592 291.519
25.7599 291.523
25.7606 291.523
25.7613 291.54
25.762 291.538
25.7627 291.521
25.7634 291.538
25.7641 291.54
25.7648 291.543
25.7655 291.539
25.7662 291.54
25.7669 291.555
25.7676 291.553
25.7683 291.536
25.7689 291.559
25.7696 291.556
25.7703 291.549
25.771 291.539
25.7717 291.549
25.7724 291.558
25.7731 291.583
25.7738 291.593
25.7747 291.558
25.7754 291.556
25.7761 291.542
25.7767 291.557
25.7774 291.557
25.7781 291.556
25.7788 291.592
25.7795 291.592
25.7802 291.557
25.7809 291.585
25.7816 291.669
25.7823 291.647
25.783 291.657
25.7837 291.649
25.7844 291.693
25.7851 291.703
25.7858 291.705
25.7865 291.705
25.7872 291.721
25.7879 291.723
25.7886 291.735
25.7892 291.742
25.7899 291.736
25.7906 291.759
25.7913 291.739
25.792 291.744
25.7927 291.724
25.7934 291.723
25.7941 291.723
25.7948 291.722
25.7955 291.74
25.7962 291.738
25.7969 291.723
25.7976 291.727
25.7983 291.722
25.799 291.723
25.7997 291.726
25.8004 291.743
25.8011 291.738
25.8018 291.725
25.8025 291.726
25.8032 291.738
25.8039 291.736
25.8046 291.758
25.8053 291.74
25.806 291.744
25.8067 291.734
25.8073 291.742
25.808 291.738
25.8087 291.72
25.8094 291.729
25.8101 291.724
25.8108 291.725
25.8115 291.744
25.8122 291.74
25.8129 291.742
25.8136 291.741
25.8143 291.741
25.815 291.754
25.8159 291.729
25.8166 291.723
25.8173 291.753
25.818 291.741
25.8187 291.742
25.8194 291.76
25.8201 291.744
25.8208 291.759
25.8215 291.747
25.8222 291.761
25.8228 291.751
25.8235 291.76
25.8242 291.757
25.8249 291.763
25.8256 291.763
25.8263 291.781
25.827 291.781
25.8277 291.786
25.8284 291.796
25.8291 291.777
25.8298 291.795
25.8305 291.783
25.8312 291.8
25.8319 291.81
25.8326 291.81
25.8333 291.799
25.834 291.798
25.8347 291.802
25.8353 291.811
25.836 291.798
25.8367 291.798
25.8374 291.809
25.8381 291.796
25.8388 291.803
25.8395 291.816
25.8402 291.815
25.8409 291.816
25.8416 291.829
25.8423 291.835
25.843 291.832
25.8437 291.816
25.8444 291.833
25.8451 291.832
25.8458 291.829
25.8465 291.834
25.8472 291.833
25.8478 291.833
25.8485 291.822
25.8492 291.832
25.8499 291.839
25.8506 291.815
25.8513 291.833
25.852 291.833
25.8527 291.838
25.8534 291.833
25.8541 291.832
25.8548 291.83
25.8555 291.815
25.8562 291.827
25.8569 291.836
25.8578 291.819
25.8585 291.832
25.8592 291.814
25.8599 291.813
25.8606 291.802
25.8613 291.813
25.862 291.813
25.8627 291.817
25.8634 291.794
25.8641 291.811
25.8648 291.795
25.8655 291.794
25.8662 291.78
25.8669 291.778
25.8676 291.758
25.8683 291.74
25.869 291.673
25.8697 291.669
25.8703 291.678
25.871 291.665
25.8717 291.648
25.8724 291.631
25.8731 291.667
25.8738 291.666
25.8745 291.659
25.8752 291.663
25.8759 291.674
25.8766 291.668
25.8773 291.679
25.878 291.665
25.8787 291.678
25.8794 291.702
25.8801 291.704
25.8808 291.722
25.8815 291.738
25.8822 291.773
25.8828 291.77
25.8835 291.797
25.8842 291.834
25.8849 291.851
25.8856 291.902
25.8863 291.87
25.887 291.887
25.8877 291.755
25.8884 291.561
25.8891 291.616
25.8898 291.61
25.8905 291.654
25.8912 291.501
25.8919 290.314
25.8926 287.106
25.8933 270.657
25.894 272.757
25.8947 269.285
25.8953 267.369
25.896 266.097
25.8967 264.386
25.8974 263.515
25.8981 263.658
25.8988 263.401
25.8998 259.05
25.9005 255.622
25.9012 249.936
25.9019 241.534
25.9025 231.788
25.9032 224.51
25.9039 223.045
25.9046 225.515
25.9053 220.456
25.906 214.87
25.9067 210.749
25.9074 208.174
25.9081 203.448
25.9088 202.207
25.9095 196.698
25.9102 188.446
25.9109 179.338
25.9116 170.586
25.9123 162.705
25.913 152.964
25.9137 142.077
25.9144 132.283
25.915 122.077
25.9157 111.785
25.9164 101.412
25.9171 90.5308
25.9178 79.7353
25.9185 71.5069
25.9192 65.4848
25.9199 59.9283
25.9206 55.0947
25.9213 51.3008
25.922 48.5166
25.9227 45.9864
25.9234 43.8572
25.9241 41.9219
25.9248 40.141
25.9255 38.5633
25.9262 36.9972
25.9269 35.6895
25.9275 34.4827
25.9282 33.4824
25.9289 32.7247
25.9296 32.1121
25.9303 31.6457
25.931 31.2469
25.9317 30.9135
25.9324 30.6019
25.9331 30.3672
25.9338 30.1401
25.9345 30.0079
25.9352 29.8389
25.9359 29.5275
25.9366 29.3371
25.9373 29.1833
25.938 28.8744
25.9387 28.6293
25.9394 28.53
25.9401 28.2877
25.941 28.1877
25.9417 28.015
25.9424 27.8659
25.9431 27.7724
25.9438 27.6035
25.9445 27.5437
25.9452 27.415
25.9459 27.0709
25.9466 26.9122
25.9472 24.5289
25.9479 24.4855
25.9486 24.4508
25.9493 24.4504
25.95 24.4143
25.9507 24.407
25.9514 24.3833
25.9521 24.292
25.9528 24.409
25.9535 24.448
25.9542 24.2954
25.9549 24.2181
25.9556 24.2188
25.9563 24.2541
25.957 24.2184
25.9577 24.2182
25.9584 24.1856
25.9591 24.1487
25.9597 24.1406
25.9604 24.1443
25.9611 24.1433
25.9618 24.1454
25.9625 24.1431
25.9632 24.1467
25.9639 24.1364
25.9646 24.1401
25.9653 24.1587
25.966 24.1403
25.9667 24.1415
25.9674 24.1364
25.9681 24.1415
25.9688 24.1451
25.9695 24.1495
25.9702 24.1032
25.9709 24.1362
25.9716 24.1371
25.9722 24.1431
25.9729 24.1229
25.9736 24.1366
25.9743 24.1594
25.975 24.1373
25.9757 24.1432
25.9764 24.1444
25.9771 24.1258
25.9778 24.1009
25.9785 24.1717
25.9792 24.1768
25.9799 24.1379
25.9806 24.1769
25.9813 24.1796
25.982 24.2108
25.9828 24.1405
25.9835 24.1755
25.9842 24.1813
25.9849 24.1887
25.9856 24.1792
25.9863 24.1757
25.987 24.1395
25.9877 24.1794
25.9884 24.1812
25.9891 24.1869
25.9898 24.1722
25.9905 24.1416
25.9912 24.1115
25.9919 24.182
25.9926 24.1719
25.9933 24.1787
25.9939 24.1652
25.9946 24.1771
25.9953 24.1474
25.996 24.1487
25.9967 24.1354
25.9974 24.1397
25.9981 24.1363
25.9988 24.1431
25.9995 24.1659
26.0002 24.1446
26.0009 24.1384
26.0016 24.141
26.0023 24.1289
26.003 24.1379
26.0037 24.1431
26.0044 24.1367
26.0051 24.1174
26.0058 24.1688
26.0064 24.142
26.0071 24.1352
26.0078 24.1549
26.0085 24.1411
26.0092 24.1335
26.0099 24.1308
26.0106 24.141
26.0113 24.179
26.012 24.097
26.0127 24.1061
26.0134 24.1162
26.0141 24.101
26.0148 24.1287
26.0155 24.1392
26.0162 24.1288
26.0169 24.135
26.0176 24.1263
26.0183 24.1056
26.0189 24.133
26.0196 24.0954
26.0203 24.1044
26.021 24.0983
26.0217 24.1242
26.0224 24.1027
26.0231 24.1192
26.0238 24.1381
26.0248 24.1373
26.0255 24.1259
26.0262 24.0995
26.0269 24.0959
26.0275 24.1016
26.0282 24.1253
26.0289 24.1329
26.0296 24.1128
26.0303 24.1391
26.031 24.1407
26.0317 24.1018
26.0324 24.1055
26.0331 24.062
26.0338 24.1021
26.0345 24.0903
26.0352 24.1059
26.0359 24.1328
26.0366 24.0903
26.0373 24.1066
26.038 24.0796
26.0387 24.1034
26.0394 24.1016
26.04 24.1313
26.0407 24.1012
26.0414 24.1439
26.0421 24.089
26.0428 24.1304
26.0435 24.1037
26.0442 24.0976
26.0449 24.0037
26.0456 24.1391
26.0463 24.0711
26.047 24.102
26.0477 24.1025
26.0484 24.137
26.0491 24.0935
26.0498 24.1019
26.0505 24.1038
26.0512 24.0618
26.0519 23.997
26.0525 24.1181
26.0532 24.1337
26.0539 24.0658
26.0546 24.0979
26.0553 24.0621
26.056 24.1039
26.0567 24.0729
26.0574 24.067
26.0581 24.0639
26.0588 24.0651
26.0595 24.098
26.0602 24.0609
26.0609 24.0898
26.0616 24.0975
26.0623 24.1188
26.063 24.0683
26.0637 24.0632
26.0644 24.0665
26.065 24.0739
26.066 24.0846
26.0667 24.1034
26.0674 24.0573
26.0681 24.0783
26.0688 23.991
26.0695 24.0666
26.0702 24.0686
26.0709 24.0859
26.0716 24.1031
26.0722 24.0586
26.0729 24.0686
26.0736 24.1162
26.0743 24.0569
26.075 24.0656
26.0757 24.1068
26.0764 24.0616
26.0771 24.1002
26.0778 24.1025
26.0785 24.0624
26.0792 24.0593
26.0799 24.0628
26.0806 24.082
26.0813 24.0738
26.082 24.0642
26.0827 24.0616
26.0834 24.0687
26.0841 24.0024
26.0847 24.096
26.0854 24.0625
26.0861 24.0547
26.0868 24.1007
26.0875 24.059
26.0882 24.0617
26.0889 23.9909
26.0896 24.0833
26.0903 24.0944
26.091 24.0599
26.0917 24.0674
26.0924 24.067
26.0931 23.9903
26.0938 24.0964
26.0945 24.0593
26.0952 24.0641
26.0959 24.0618
26.0966 24.0663
26.0973 24.0612
26.098 24.0132
26.0986 24.0669
26.0993 24.0625
26.1 23.9946
26.1007 24.0623
26.1014 24.0513
26.1021 24.0658
26.1028 24.1102
26.1035 23.9864
26.1042 24.0659
26.1049 24.0907
26.1056 24.0583
26.1063 24.0916
26.107 24.0912
26.1079 24.0638
26.1086 24.0459
26.1093 24.0955
26.11 23.9986
26.1107 23.987
26.1114 24.0682
26.1121 24.0647
26.1128 24.0603
26.1135 24.0559
26.1142 24.0743
26.1149 24.0536
26.1156 24.0617
26.1163 23.9896
26.117 24.0544
26.1177 24.0627
26.1183 24.0652
26.119 24.0617
26.1197 24.0053
26.1204 24.0512
26.1211 24.008
26.1218 24.0615
26.1225 24.0628
26.1232 23.9913
26.1239 24.0911
26.1246 24.0566
26.1253 24.086
26.126 24.0647
26.1267 24.0393
26.1274 24.0558
26.1281 24.0565
26.1288 24.0583
26.1295 24.0622
26.1302 24.0622
26.1308 24.0612
26.1315 24.0646
26.1322 24.0841
26.1329 23.9839
26.1336 24.0632
26.1343 24.059
26.135 24.0231
26.1357 24.1018
26.1364 24.0649
26.1371 23.9908
26.1378 24.0856
26.1385 24.0616
26.1392 24.0637
26.1399 24.0627
26.1406 24.0591
26.1413 23.9896
26.142 24.0625
26.1427 24.0606
26.1433 24.0589
26.144 24.0618
26.1447 23.9768
26.1454 23.9862
26.1461 24.0035
26.1468 24.065
26.1475 24.04
26.1482 24.0999
26.1489 24.0577
26.1498 24.0649
26.1505 24.0745
26.1512 23.9789
26.1519 24.0558
26.1526 23.9919
26.1533 24.0379
26.154 24.058
26.1547 24.0556
26.1554 24.0523
26.1561 23.9808
26.1568 24.051
26.1575 23.9809
26.1582 23.9771
26.1589 24.0875
26.1596 24.0598
26.1603 24.0848
26.1609 24.0514
26.1616 23.9973
26.1623 24.0633
26.163 23.9989
26.1637 23.9845
26.1644 24.0626
26.1651 24.0649
26.1658 24.0597
26.1665 24.0594
26.1672 24.0538
26.1679 24.0652
26.1686 24.06
26.1693 24.055
26.17 24.0575
26.1707 23.9983
26.1714 24.0597
26.1721 24.0508
26.1728 24.0563
26.1734 24.0572
26.1741 24.0573
26.1748 23.9853
26.1755 24.056
26.1762 24.0466
26.1769 24.0531
26.1776 24.0063
26.1783 24.0607
26.179 24.0127
26.1797 23.9801
26.1804 23.9919
26.1811 23.9836
26.1818 24.0504
26.1825 24.0626
26.1832 23.9496
26.1839 24.0616
26.1846 24.0539
26.1853 24.0862
26.186 24.0561
26.1867 24.0605
26.1873 24.0609
26.188 24.0613
26.1887 23.9535
26.1894 24.0626
26.1901 24.0583
26.1911 24.0396
26.1918 23.9884
26.1925 24.0338
26.1932 24.0669
26.1939 24.0053
26.1945 24.0578
26.1952 23.9882
26.1959 24.056
26.1966 24.0345
26.1973 24.0579
26.198 24.0785
26.1987 24.0603
26.1994 24.0592
26.2001 24.0585
26.2008 24.0382
26.2015 24.056
26.2022 24.0323
26.2029 24.0919
26.2036 24.0639
26.2043 24.0627
26.205 24.0528
26.2057 24.0559
26.2064 24.0035
26.207 24.0505
26.2077 24.0608
26.2084 23.9848
26.2091 24.0726
26.2098 23.9844
26.2105 24.0072
26.2112 23.9865
26.2119 24.0062
26.2126 24.0896
26.2133 24.0617
26.214 24.0604
26.2147 24.02
26.2154 23.9526
26.2161 24.0235
26.2168 24.0584
26.2175 24.0628
26.2182 24.0925
26.2189 24.0579
26.2195 24.0649
26.2202 24.0553
26.2209 24.0611
26.2216 24.0774
26.2223 24.0878
26.223 24.0017
26.2237 24.0918
26.2244 24.0556
26.2251 24.0614
26.2258 24.0659
26.2265 24.058
26.2272 24.0391
26.2279 24.0449
26.2286 24.0389
26.2293 24.0509
26.23 24.0424
26.2307 23.9748
26.2314 23.9946
26.232 23.9936
26.2329 24.0617
26.2336 24.0561
26.2343 24.0268
26.235 23.9846
26.2357 24.061
26.2364 24.0595
26.2371 23.9792
26.2378 24.0612
26.2385 23.9803
26.2392 24.0499
26.2399 24.0587
26.2406 23.9817
26.2413 24.0321
26.2419 24.0576
26.2426 24.0246
26.2433 24.0636
26.244 23.9992
26.2447 23.9774
26.2454 24.0777
26.2461 23.9908
26.2468 24.0585
26.2475 24.058
26.2482 24.0063
26.2489 24.0565
26.2496 24.0577
26.2503 24.0568
26.251 23.9756
26.2517 24.0976
26.2524 23.9812
26.2531 24.0594
26.2538 24.0187
26.2544 24.0506
26.2551 24.0815
26.2558 24.0542
26.2565 24.063
26.2572 24.0611
26.2579 24.0599
26.2586 23.9938
26.2593 24.0586
26.26 23.9845
26.2607 24.0607
26.2614 24.0616
26.2621 24.0608
26.2628 24.049
26.2635 24.0282
26.2642 24.0582
26.2649 24.0577
26.2656 24.0499
26.2662 24.0358
26.2669 23.9932
26.2676 24.0522
26.2683 24.0562
26.269 24.0562
26.2697 23.9816
26.2704 24.0571
26.2711 24.062
26.2718 24.0558
26.2725 24.058
26.2732 23.983
26.2739 24.058
26.2748 23.9921
26.2755 24.0089
26.2762 24.0592
26.2769 24.0584
26.2776 23.9892
26.2783 24.0578
26.279 24.0526
26.2797 24.06
26.2804 23.9774
26.2811 24.0589
26.2818 23.9878
26.2825 24.0715
26.2832 23.9827
26.2839 24.0575
26.2846 24.0551
26.2853 24.0588
26.286 24.0531
26.2867 24.0586
26.2874 24.0608
26.2881 24.0601
26.2888 24.093
26.2894 23.9849
26.2901 24.0588
26.2908 24.0584
26.2915 24.0553
26.2922 24.0592
26.2929 24.0932
26.2936 24.024
26.2943 24.0989
26.295 24.0581
26.2957 23.9843
26.2964 24.058
26.2971 24.0594
26.2978 23.9828
26.2985 23.9804
26.2992 23.9817
26.2999 23.9845
26.3006 24.0736
26.3012 24.0561
26.3019 24.0552
26.3026 24.0618
26.3033 24.0527
26.304 24.0583
26.3047 23.9777
26.3054 23.9771
26.3061 24.054
26.3068 23.9838
26.3075 24.0641
26.3082 24.0584
26.3089 24.0012
26.3096 24.0598
26.3103 23.9801
26.311 24.0539
26.3117 23.9768
26.3124 24.0285
26.3131 24.0896
26.3137 24.0573
26.3144 24.0972
26.3151 24.0477
26.3158 24.0585
26.3168 23.9818
26.3175 23.9869
26.3182 24.0581
26.3189 24.062
26.3196 24.0818
26.3203 24.0518
26.321 24.0106
26.3217 24.0592
26.3224 23.9799
26.3231 24.0852
26.3238 24.0611
26.3244 24.0564
26.3251 24.0204
26.3258 24.0559
26.3265 24.066
26.3272 24.0568
26.3279 23.9813
26.3286 24.0568
26.3293 23.986
26.33 24.06
26.3307 24.0541
26.3314 24.0596
26.3321 24.0693
26.3328 24.0544
26.3335 24.0585
26.3342 24.0542
26.3349 24.0623
26.3356 24.058
26.3362 24.0611
26.3369 23.983
26.3376 24.0056
26.3383 24.0652
26.339 23.9909
26.3397 24.0484
26.3404 24.0573
26.3411 24.0641
26.3418 24.0194
26.3425 23.9894
26.3432 24.0599
26.3439 23.9786
26.3446 24.0583
26.3453 24.0655
26.346 24.0064
26.3467 24.0551
26.3474 24.0386
26.3481 24.0572
26.3487 23.9813
26.3494 24.0611
26.3501 24.0818
26.3508 24.0606
26.3515 24.0727
26.3522 24.0912
26.3529 24.0606
26.3536 23.9867
26.3543 24.0293
26.355 24.0902
26.3557 23.9848
26.3564 24.095
26.3571 23.981
26.3581 24.0606
26.3588 24.0606
26.3595 24.0583
26.3602 24.056
26.3608 24.0638
26.3615 24.0598
26.3622 24.0131
26.3629 24.0585
26.3636 24.061
26.3643 23.9824
26.365 24.0592
26.3657 24.0612
26.3664 24.0487
26.3671 24.0898
26.3678 24.0522
26.3685 23.9943
26.3692 24.0494
26.3699 24.0501
26.3706 24.0413
26.3713 24.0567
26.372 23.999
26.3727 24.055
26.3733 24.0651
26.374 24.0593
26.3747 24.0582
26.3754 24.0562
26.3761 24.0418
26.3768 24.0599
26.3775 24.0407
26.3782 24.0609
26.3789 24.0107
26.3796 24.0692
26.3803 24.0388
26.381 24.0611
26.3817 24.0334
26.3824 24.0626
26.3831 24.0611
26.3838 24.0636
26.3845 24.0175
26.3852 24.0575
26.3858 24.026
26.3865 24.0896
26.3872 24.0361
26.3879 24.0569
26.3886 24.0112
26.3893 24.0628
26.39 24.0806
26.3907 23.9911
26.3914 24.0231
26.3921 23.9842
26.3928 24.0193
26.3935 24.0646
26.3942 23.991
26.3949 24.0598
26.3956 24.0539
26.3963 24.0643
26.397 23.9898
26.3977 24.0752
26.3983 24.0758
26.399 23.9779
26.4 24.0649
26.4007 24.0128
26.4014 24.0586
26.4021 24.0625
26.4028 24.063
26.4035 24.0634
26.4042 24.0538
26.4049 24.0298
26.4056 24.0641
26.4063 24.0171
26.407 24.0645
26.4077 24.0588
26.4083 23.9819
26.409 24.0217
26.4097 24.0961
26.4104 24.0189
26.4111 24.0555
26.4118 24.022
26.4125 23.9925
26.4132 24.0218
26.4139 24.0622
26.4146 24.0172
26.4153 24.0591
26.416 24.0228
26.4167 24.0632
26.4174 24.061
26.4181 23.9918
26.4188 24.0639
26.4195 24.0663
26.4202 24.0097
26.4208 24.0639
26.4215 24.0113
26.4222 24.0577
26.4229 23.9885
26.4236 23.9819
26.4243 24.0472
26.425 23.9957
26.4257 23.9912
26.4264 23.9994
26.4271 23.9951
26.4278 23.9989
26.4285 23.9933
26.4292 24.0593
26.4299 23.9855
26.4306 23.9525
26.4313 23.9901
26.432 24.063
26.4327 23.9865
26.4333 23.9871
26.434 24.0996
26.4347 24.037
26.4354 23.9851
26.4361 24.0653
26.4368 24.0364
26.4375 23.9847
26.4382 23.9842
26.4389 23.9858
26.4396 24.0072
26.4403 23.9832
26.441 24.0637
26.442 24.0579
26.4427 24.0627
26.4434 24.0659
26.4441 23.9838
26.4448 24.0666
26.4455 23.985
26.4461 24.0004
26.4468 24.0529
26.4475 23.9963
26.4482 23.9877
26.4489 23.9853
26.4496 24.0595
26.4503 24.0637
26.451 23.9966
26.4517 24.0268
26.4524 24.0564
26.4531 24.0178
26.4538 23.9973
26.4545 24.0633
26.4552 23.9929
26.4559 24.0686
26.4566 23.9939
26.4573 24.0159
26.458 23.986
26.4586 24.0278
26.4593 24.0683
26.46 24.0275
26.4607 24.0648
26.4614 23.99
26.4621 24.0007
26.4628 23.9878
26.4635 23.9894
26.4642 24.0586
26.4649 24.0674
26.4656 24.0608
26.4663 24.0658
26.467 24.0621
26.4677 24.0497
26.4684 23.9863
26.4691 23.9557
26.4698 24.0685
26.4705 24.059
26.4712 24.0332
26.4719 24.0615
26.4726 24.0147
26.4733 24.0533
26.4739 24.0174
26.4746 23.9899
26.4753 23.9872
26.476 23.9889
26.4767 23.9728
26.4774 23.988
26.4781 24.0535
26.4788 23.9529
26.4795 23.9528
26.4802 23.9893
26.4809 24.057
26.4816 24.0526
26.4823 23.9898
26.4833 23.9869
26.484 23.9719
26.4847 23.9833
26.4854 24.0393
26.4861 23.9956
26.4868 23.9898
26.4875 23.9648
26.4881 24.0035
26.4888 23.9889
26.4895 23.9882
26.4902 24.0566
26.4909 24.0472
26.4916 23.9992
26.4923 23.985
26.493 24.0516
26.4937 24.0615
26.4944 24.0033
26.4951 23.9908
26.4958 24.063
26.4965 23.9496
26.4972 23.9936
26.4979 24.0204
26.4986 23.9894
26.4993 24.0638
26.5 23.9853
26.5006 24.0348
26.5013 23.9914
26.502 23.9934
26.5027 23.9885
26.5034 24.0658
26.5041 24.0677
26.5048 23.9854
26.5055 24.0597
26.5062 23.9895
26.5069 23.9952
26.5076 23.9893
26.5083 24.0622
26.509 24.0453
26.5097 23.9911
26.5104 24.0652
26.5111 24.0585
26.5118 23.9602
26.5125 23.9941
26.5131 23.991
26.5138 24.0644
26.5145 23.9879
26.5152 23.9928
26.5159 24.018
26.5166 23.9921
26.5173 24.0671
26.518 23.9905
26.5187 23.9673
26.5194 24.0688
26.5201 23.9752
26.5208 23.9876
26.5215 23.9889
26.5222 23.9962
26.5229 23.9918
26.5236 24.058
26.5243 24.0633
26.5253 24.0571
26.5259 23.9602
26.5266 24.0652
26.5273 23.957
26.528 24.0605
26.5287 24.0533
26.5294 23.9898
26.5301 24.0507
26.5308 24.0995
26.5315 23.9857
26.5322 24.0252
26.5329 23.9892
26.5336 23.9909
26.5343 23.9872
26.535 24.04
26.5357 23.9945
26.5364 23.9644
26.5371 23.991
26.5378 24.0158
26.5384 23.9928
26.5391 23.9916
26.5398 23.9896
26.5405 23.9908
26.5412 24.0616
26.5419 23.9892
26.5426 24.0661
26.5433 23.9656
26.544 23.99
26.5447 23.9894
26.5454 23.9944
26.5461 23.9908
26.5468 24.0008
26.5475 24.0682
26.5482 23.9914
26.5489 23.9925
26.5496 23.9881
26.5503 24.0053
26.5509 24.0642
26.5516 24.0144
26.5523 23.9939
26.553 24.0683
26.5537 23.9925
26.5544 23.9876
26.5551 23.9927
26.5558 23.997
26.5565 24.0453
26.5572 24.0691
26.5579 24.0526
26.5586 24.0587
26.5593 24.084
26.56 24.069
26.5607 24.0665
26.5614 23.9908
26.5621 23.9914
26.5628 23.9945
26.5634 24.0701
26.5641 23.9922
26.5648 24.0177
26.5655 24.0633
26.5665 24.0476
26.5672 23.9949
26.5678 24.0112
26.5685 23.9933
26.5692 24.0492
26.5699 23.9991
26.5706 23.9957
26.5713 23.9963
26.572 24.0429
26.5727 23.995
26.5734 24.0405
26.5741 23.9941
26.5748 24.0382
26.5755 24.0623
26.5762 24.067
26.5769 24.0651
26.5776 23.9863
26.5783 23.9938
26.579 23.9902
26.5797 23.9901
26.5803 24.0654
26.581 23.9942
26.5817 24.0168
26.5824 23.9905
26.5831 24.0359
26.5838 24.0641
26.5845 24.0232
26.5852 23.9878
26.5859 24.0342
26.5866 24.0615
26.5873 24.066
26.588 23.9877
26.5887 24.0207
26.5894 23.992
26.5901 24.0675
26.5908 23.9917
26.5915 24.0698
26.5922 23.9842
26.5928 24.0301
26.5935 24.0663
26.5942 23.9914
26.5949 23.9876
26.5956 23.9915
26.5963 24.0618
26.597 23.9952
26.5977 24.0706
26.5984 24.0689
26.5991 23.9919
26.5998 23.9902
26.6005 23.9931
26.6012 24.0529
26.6019 24.068
26.6026 23.9919
26.6033 23.9974
26.604 24.0694
26.6047 24.0616
26.6053 24.0141
26.606 24.0705
26.6067 24.0492
26.6074 24.0592
26.6084 23.9904
26.6091 24.068
26.6098 23.9695
26.6105 23.9894
26.6112 23.9902
26.6119 23.9865
26.6126 24.0278
26.6133 23.9957
26.614 24.0349
26.6147 23.995
26.6154 24.0148
26.6161 23.9893
26.6168 24.0106
26.6175 24.0587
26.6181 24.0185
26.6188 24.0596
26.6195 23.9924
26.6202 24.0698
26.6209 24.0235
26.6216 23.9896
26.6223 24.0682
26.623 24.0629
26.6237 24.0258
26.6244 23.9957
26.6251 24.0338
26.6258 23.9918
26.6265 24.0319
26.6272 24.0689
26.6279 23.9882
26.6286 23.9983
26.6293 24.0479
26.63 23.9934
26.6306 24.0073
26.6313 24.0723
26.632 24.053
26.6327 24.0689
26.6334 24.0448
26.6341 23.9922
26.6348 24.0166
26.6355 24.0675
26.6362 24.0681
26.6369 24.0675
26.6376 24.0114
26.6383 24.073
26.639 23.9918
26.6397 23.9987
26.6404 23.9892
26.6411 23.9962
26.6418 24.0465
26.6425 23.9568
26.6431 24.0669
26.6438 23.9923
26.6445 24.0657
26.6452 24.0685
26.6459 24.0345
26.6466 24.0694
26.6473 23.9925
26.648 23.9972
26.6487 24.0199
26.6494 23.9966
26.6504 24.0606
26.6511 23.9929
26.6518 23.9918
26.6525 23.9932
26.6531 24.1049
26.6538 24.0703
26.6545 23.9928
26.6552 24.0123
26.6559 24.0645
26.6566 23.9912
26.6573 24.0767
26.658 23.9942
26.6587 24.0543
26.6594 24.0035
26.6601 24.0751
26.6608 24.0574
26.6615 24.0658
26.6622 24.0028
26.6629 23.9977
26.6636 23.9878
26.6643 24.0566
26.665 23.9899
26.6657 24.0033
26.6664 24.0594
26.667 24.0664
26.6677 23.9648
26.6684 23.994
26.6691 24.0533
26.6698 24.0601
26.6705 23.9911
26.6712 24.0669
26.6719 23.9917
26.6726 23.9932
26.6733 23.9917
26.674 24.0614
26.6747 24.0069
26.6754 23.9962
26.6761 24.0118
26.6768 23.9952
26.6775 24.0153
26.6782 24.0655
26.6789 24.0442
26.6795 23.9947
26.6802 24.0171
26.6809 24.0643
26.6816 24.041
26.6823 23.999
26.683 24.0186
26.6837 24.0633
26.6844 24.0268
26.6851 23.996
26.6858 24.0278
26.6865 24.0681
26.6872 24.0352
26.6879 24.069
26.6886 24.0689
26.6893 23.9901
26.69 23.9917
26.6907 23.9991
26.6916 24.0698
26.6923 24.0711
26.693 24.0726
26.6937 24.059
26.6944 24.0412
26.6951 23.9971
26.6958 24.0175
26.6965 23.9945
26.6972 24.0308
26.6979 24.0635
26.6986 23.9929
26.6993 23.9983
26.7 24.0702
26.7007 23.9889
26.7014 23.9928
26.702 24.0705
26.7027 24.0358
26.7034 23.9985
26.7041 24.0389
26.7048 24.0643
26.7055 24.021
26.7062 24.0668
26.7069 24.0226
26.7076 24.0996
26.7083 24.0382
26.709 23.9872
26.7097 23.991
26.7104 24.0626
26.7111 24.0291
26.7118 23.9937
26.7125 24.0697
26.7132 24.0629
26.7139 23.9926
26.7145 24.0675
26.7152 24.0669
26.7159 23.9927
26.7166 24.0187
26.7173 23.9916
26.718 23.9891
26.7187 24.0618
26.7194 23.9901
26.7201 23.9981
26.7208 24.0166
26.7215 24.0636
26.7222 24.0352
26.7229 24.0595
26.7236 23.9886
26.7243 23.9606
26.725 24.067
26.7257 23.9946
26.7264 24.0108
26.727 24.0647
26.7277 24.0172
26.7284 23.9965
26.7291 24.0437
26.7298 24.0651
26.7305 24.0307
26.7312 24.0659
26.7319 24.0408
26.7326 24.066
26.7336 23.991
26.7343 24.0664
26.735 24.0672
26.7356 24.0697
26.7363 24.0656
26.737 24.0134
26.7377 23.9943
26.7384 24.0042
26.7391 23.9889
26.7398 24.018
26.7405 24.0679
26.7412 24.0688
26.7419 24.0175
26.7426 24.0012
26.7433 24.0029
26.744 23.9909
26.7447 24.0633
26.7454 24.0638
26.7461 24.0546
26.7468 24.0029
26.7475 24.0605
26.7482 24.0657
26.7489 24.0611
26.7495 23.9936
26.7502 24.0621
26.7509 24.0034
26.7516 24.063
26.7523 24.072
26.753 23.9943
26.7537 23.995
26.7544 24.0658
26.7551 24.0016
26.7558 23.9883
26.7565 24.0684
26.7572 24.0693
26.7579 24.0702
26.7586 24.0579
26.7593 23.9895
26.76 23.9989
26.7607 23.9915
26.7614 24.064
26.762 24.0697
26.7627 23.9927
26.7634 23.9897
26.7641 23.9988
26.7648 24.0063
26.7655 23.9925
26.7662 23.9933
26.7669 24.1044
26.7676 24.0106
26.7683 24.0681
26.769 24.0071
26.7697 23.9846
26.7704 24.0888
26.7711 24.069
26.7718 24.0016
26.7725 23.9901
26.7732 24.0038
26.7739 24.0674
26.7745 23.9891
26.7755 24.0677
26.7762 24.0682
26.7769 24.0651
26.7776 24.0498
26.7783 23.9932
26.779 24.0686
26.7797 24.0599
26.7804 23.9845
26.7811 23.9918
26.7818 24.0678
26.7825 24.0676
26.7832 24.0435
26.7839 24.0612
26.7845 23.9634
26.7852 24.0647
26.7859 23.9876
26.7866 23.956
26.7873 24.0156
26.788 24.0671
26.7887 24.0934
26.7894 24.0667
26.7901 24.0503
26.7908 24.0598
26.7915 24.0119
26.7922 23.9953
26.7929 24.0088
26.7936 24.064
26.7943 23.9821
26.795 23.9939
26.7957 24.0411
26.7964 23.9896
26.797 23.9942
26.7977 24.0663
26.7984 24.0386
26.7991 23.9856
26.7998 24.0318
26.8005 23.993
26.8012 24.063
26.8019 24.067
26.8026 24.0232
26.8033 23.9911
26.804 24.0657
26.8047 23.9926
26.8054 23.9843
26.8061 24.0575
26.8068 23.9701
26.8075 23.9915
26.8082 23.9905
26.8089 23.9902
26.8095 24.0686
26.8102 23.9504
26.8109 24.066
26.8116 23.9963
26.8123 23.99
26.813 24.0619
26.8137 23.99
26.8144 24.0634
26.8151 24.0635
26.8158 23.9932
26.8168 24.0576
26.8175 24.0095
26.8182 24.0017
26.8189 24.063
26.8196 24.0589
26.8203 24.0056
26.8209 24.0652
26.8216 24.0644
26.8223 23.9881
26.823 24.0655
26.8237 23.9964
26.8244 24.0086
26.8251 23.9932
26.8258 24.06
26.8265 23.9814
26.8272 24.0503
26.8279 23.9916
26.8286 24.057
26.8293 24.0553
26.83 23.9897
26.8307 24.0069
26.8314 24.0093
26.8321 24.0742
26.8328 24.0644
26.8334 24.0034
26.8341 24.0632
26.8348 23.9635
26.8355 23.9805
26.8362 24.0548
26.8369 23.9882
26.8376 24.0691
26.8383 24.0353
26.839 24.0556
26.8397 23.989
26.8404 23.9955
26.8411 24.0637
26.8418 24.0582
26.8425 24.0663
26.8432 23.9913
26.8439 23.9905
26.8446 23.9855
26.8453 24.0128
26.8459 23.9864
26.8466 23.9866
26.8473 23.9881
26.848 23.984
26.8487 24.0706
26.8494 24.0288
26.8501 23.9892
26.8508 24.0632
26.8515 23.985
26.8522 24.0168
26.8529 23.9905
26.8536 23.9881
26.8543 24.065
26.855 24.0084
26.8557 23.9966
26.8564 23.9893
26.8571 24.0641
26.8578 23.987
26.8586 23.9941
26.8593 24.0123
26.86 24.065
26.8607 24.0403
26.8614 23.9845
26.8621 24.0636
26.8628 24.0657
26.8635 23.9845
26.8642 24.0637
26.8649 24.0654
26.8656 24.0642
26.8663 23.989
26.867 24.0955
26.8677 23.9916
26.8683 24.0553
26.869 24.0379
26.8697 23.9962
26.8704 24.0425
26.8711 24.0573
26.8718 24.0039
26.8725 24.049
26.8732 23.989
26.8739 24.0666
26.8746 24.0144
26.8753 23.9914
26.876 24.0401
26.8767 23.9915
26.8774 23.9922
26.8781 23.986
26.8788 24.0313
26.8795 23.9902
26.8802 24.0339
26.8808 23.9886
26.8815 24.0243
26.8822 24.0597
26.8829 24.0193
26.8836 24.0698
26.8843 24.0212
26.885 23.9577
26.8857 23.9867
26.8864 23.9944
26.8871 23.9878
26.8878 24.103
26.8885 24.007
26.8892 23.986
26.8899 24.0706
26.8906 24.0707
26.8913 24.0418
26.892 23.9857
26.8927 24.017
26.8933 23.9916
26.894 24.0187
26.8947 23.9902
26.8954 24.0263
26.8961 23.9904
26.8968 24.0483
26.8975 23.9938
26.8982 23.9878
26.8989 23.9908
26.8996 24.0642
26.9006 24.0031
26.9013 24.0696
26.902 24.0639
26.9027 24.0641
26.9033 24.067
26.904 24.0003
26.9047 24.0518
26.9054 23.9849
26.9061 24.0659
26.9068 24.0593
26.9075 24.0653
26.9082 24.0579
26.9089 24.0096
26.9096 23.9948
26.9103 24.0067
26.911 23.9857
26.9117 23.9893
26.9124 24.0643
26.9131 24.0705
26.9138 23.9986
26.9145 24.0246
26.9152 23.9844
26.9158 24.0647
26.9165 24.0657
26.9172 24.0298
26.9179 24.0601
26.9186 24.0682
26.9193 24.058
26.92 24.0924
26.9207 23.9877
26.9214 24.0635
26.9221 23.9629
26.9228 24.0068
26.9235 24.0532
26.9242 24.0721
26.9249 23.988
26.9256 24.0504
26.9263 24.0554
26.927 24.0508
26.9277 24.0992
26.9284 24.0608
26.9291 24.0668
26.9297 24.0178
26.9304 23.9937
26.9311 24.0803
26.9318 24.0583
26.9325 23.9856
26.9332 23.9863
26.9339 24.0234
26.9346 23.9882
26.9353 24.0121
26.936 24.0678
26.9367 24.0648
26.9374 24.0613
26.9381 24.0386
26.9388 23.9886
26.9395 24.0668
26.9402 23.99
26.9409 23.9861
26.9418 23.9864
26.9425 24.0549
26.9432 24.0018
26.9439 24.0557
26.9446 23.992
26.9453 24.0428
26.946 23.9894
26.9467 24.0658
26.9474 23.9928
26.9481 24.0601
26.9488 23.961
26.9495 23.9896
26.9502 23.9899
26.9509 24.0003
26.9516 23.9936
26.9523 24.0061
26.953 23.9862
26.9536 24.0675
26.9543 23.9523
26.955 24.0505
26.9557 24.06
26.9564 24.058
26.9571 24.0507
26.9578 24.0648
26.9585 24.0991
26.9592 24.0717
26.9599 24.0542
26.9606 24.0046
26.9613 24.0573
26.962 23.9901
26.9627 23.9909
26.9634 24.0655
26.9641 23.9923
26.9648 24.0024
26.9655 24.0587
26.9661 23.9876
26.9668 24.0656
26.9675 24.0456
26.9682 24.0632
26.9689 24.0844
26.9696 24.0613
26.9703 24.0626
26.971 24.0636
26.9717 24.0174
26.9724 24.0633
26.9731 23.9841
26.9738 24.0628
26.9745 24.0237
26.9752 23.992
26.9759 24.0271
26.9766 24.0616
26.9773 24.0849
26.978 23.9908
26.9786 24.0022
26.9793 24.0709
26.98 24.0059
26.9807 24.0566
26.9814 24.0432
26.9821 23.9941
26.9828 24.0647
26.9838 24.0975
26.9845 24.0353
26.9852 24.0704
26.9859 24.0395
26.9866 24.0653
26.9873 24.0679
26.988 24.0997
26.9887 23.986
26.9894 24.0605
26.99 24.0469
26.9907 24.0795
26.9914 24.0508
26.9921 24.0978
26.9928 24.0894
26.9935 23.9922
26.9942 24.0678
26.9949 24.0638
26.9956 23.9917
26.9963 24.0056
26.997 23.994
26.9977 24.0646
26.9984 24.0261
26.9991 24.0621
26.9998 24.0236
27.0005 24.0629
27.0012 24.0677
27.0019 24.0577
27.0025 24.0642
27.0032 24.0728
27.0039 23.9877
27.0046 23.9857
27.0053 24.0628
27.006 24.0627
27.0067 24.0856
27.0074 24.0615
27.0081 24.0319
27.0088 23.9949
27.0095 23.9862
27.0102 24.0604
27.0109 24.0673
27.0116 24.0594
27.0123 24.0651
27.013 24.0636
27.0137 24.0645
27.0144 24.0559
27.015 24.0721
27.0157 23.9973
27.0164 24.0494
27.0171 24.0491
27.0178 23.9985
27.0185 24.0871
27.0192 24.0617
27.0199 23.9932
27.0206 24.038
27.0213 23.9976
27.022 24.0254
27.0227 24.0027
27.0234 24.0486
27.0241 24.0489
27.0251 24.0548
27.0258 24.0644
27.0265 23.9954
27.0272 24.0037
27.0278 23.9864
27.0285 24.0104
27.0292 24.0676
27.0299 24.0657
27.0306 24.0589
27.0313 23.9904
27.032 23.9986
27.0327 23.9998
27.0334 24.0505
27.0341 24.003
27.0348 24.0624
27.0355 24.0494
27.0362 24.0607
27.0369 24.0772
27.0376 24.0655
27.0383 24.0028
27.039 23.9916
27.0397 24.0654
27.0403 24.0663
27.041 24.0514
27.0417 24.0655
27.0424 24.0625
27.0431 24.0622
27.0438 24.0653
27.0445 24.0679
27.0452 24.0042
27.0459 24.0638
27.0466 23.9939
27.0473 24.0754
27.048 23.9965
27.0487 24.093
27.0494 24.0705
27.0501 24.0665
27.0508 24.0499
27.0515 24.0616
27.0522 24.0624
27.0528 24.0595
27.0535 24.1018
27.0542 24.0515
27.0549 24.0538
27.0556 24.0726
27.0563 24.0528
27.057 24.0692
27.0577 24.0721
27.0584 23.9958
27.0591 24.0674
27.0598 24.0664
27.0605 24.066
27.0612 24.0666
27.0619 24.0676
27.0626 24.0045
27.0633 24.1002
27.064 24.0661
27.0647 24.0566
27.0653 24.0707
27.066 24.0002
27.067 24.0661
27.0677 24.0658
27.0684 23.9891
27.0691 24.0587
27.0698 23.988
27.0705 24.066
27.0712 24.0493
27.0719 24.0655
27.0726 23.9839
27.0733 24.0682
27.074 23.9906
27.0747 24.067
27.0754 24.0651
27.0761 23.9953
27.0768 24.1002
27.0775 24.0657
27.0781 24.0618
27.0788 23.981
27.0795 23.9907
27.0802 24.0483
27.0809 23.9926
27.0816 24.0494
27.0823 23.9935
27.083 24.0678
27.0837 24.0625
27.0844 24.0461
27.0851 24.0612
27.0858 24.0479
27.0865 24.0628
27.0872 24.0406
27.0879 23.9912
27.0886 24.0641
27.0893 23.9931
27.09 24.0106
27.0906 24.0649
27.0913 24.0695
27.092 24.0661
27.0927 24.0271
27.0934 24.0676
27.0941 24.0642
27.0948 24.0587
27.0955 24.0644
27.0962 24.0625
27.0969 24.011
27.0976 24.1024
27.0983 24.0342
27.099 24.0681
27.0997 24.0226
27.1004 24.0648
27.1011 24.0311
27.1018 23.9958
27.1025 24.0228
27.1031 24.0656
27.1038 24.0672
27.1045 24.0659
27.1052 24.0668
27.1059 23.9952
27.1066 24.0633
27.1073 24.0679
27.108 24.0622
27.109 23.9909
27.1097 24.0393
27.1104 24.0669
27.1111 24.0739
27.1118 24.0652
27.1125 24.0354
27.1132 24.0681
27.1139 23.9839
27.1146 24.0619
27.1153 24.0646
27.1159 23.9853
27.1166 24.0704
27.1173 24.0699
27.118 24.083
27.1187 23.9887
27.1194 23.9719
27.1201 24.0656
27.1208 24.0173
27.1215 24.0666
27.1222 24.0942
27.1229 24.0599
27.1236 24.0679
27.1243 24.065
27.125 24.0872
27.1257 24.0689
27.1264 24.0853
27.1271 23.9944
27.1278 24.0731
27.1284 24.0591
27.1291 24.0658
27.1298 23.9853
27.1305 24.0659
27.1312 24.0648
27.1319 24.011
27.1326 24.0658
27.1333 24.0696
27.134 24.0662
27.1347 24.0703
27.1354 24.0635
27.1361 24.0519
27.1368 24.1028
27.1375 24.0398
27.1382 23.9936
27.1389 24.0427
27.1396 23.9935
27.1403 24.0809
27.1409 24.0655
27.1416 24.0579
27.1423 24.0674
27.143 24.0357
27.1437 24.1046
27.1444 24.0579
27.1451 24.0232
27.1458 24.0598
27.1465 24.0692
27.1472 24.0736
27.1479 24.0628
27.1486 24.0696
27.1493 24.0468
27.1503 23.9855
27.151 24.0646
27.1517 24.0652
27.1524 24.0569
27.1531 24.0629
27.1537 24.0634
27.1544 24.0642
27.1551 24.0663
27.1558 24.0682
27.1565 24.0007
27.1572 24.0663
27.1579 24.063
27.1586 24.0645
27.1593 24.0684
27.16 24.066
27.1607 24.0949
27.1614 23.9889
27.1621 24.062
27.1628 24.0614
27.1635 23.9933
27.1642 24.0037
27.1649 24.0653
27.1656 24.0907
27.1663 23.99
27.1669 24.0919
27.1676 23.986
27.1683 24.0668
27.169 24.0647
27.1697 24.0107
27.1704 23.9872
27.1711 24.021
27.1718 24.1017
27.1725 24.0604
27.1732 24.0615
27.1739 24.0663
27.1746 24.0666
27.1753 24.0659
27.176 24.0675
27.1767 24.0143
27.1774 23.9916
27.1781 24.029
27.1788 24.0653
27.1794 24.064
27.1801 24.055
27.1808 24.0006
27.1815 24.0542
27.1822 24.0638
27.1829 24.1041
27.1836 24.0973
27.1843 24.0655
27.185 24.0486
27.1857 23.986
27.1864 23.9956
27.1871 24.0025
27.1878 23.9814
27.1885 24.0629
27.1892 24.0997
27.1899 23.997
27.1906 24.0709
27.1913 24.0657
27.1922 24.0705
27.1929 24.0611
27.1936 23.998
27.1943 24.0616
27.195 24.004
27.1957 24.0673
27.1964 24.071
27.1971 24.0621
27.1978 24.0519
27.1985 23.9851
27.1992 24.0635
27.1999 24.1002
27.2006 24.0377
27.2013 24.101
27.202 24.0658
27.2027 24.0639
27.2034 24.0402
27.2041 23.989
27.2047 24.064
27.2054 24.0603
27.2061 24.0651
27.2068 24.0687
27.2075 24.0634
27.2082 24.0674
27.2089 24.0668
27.2096 24.0994
27.2103 24.0642
27.211 24.0631
27.2117 24.0748
27.2124 23.9912
27.2131 24.0776
27.2138 24.0626
27.2145 24.103
27.2152 24.0505
27.2159 24.0675
27.2166 24.0654
27.2172 24.0634
27.2179 24.0848
27.2186 24.066
27.2193 23.9959
27.22 24.0644
27.2207 23.9906
27.2214 24.0971
27.2221 24.0617
27.2228 24.063
27.2235 24.0629
27.2242 24.0446
27.2249 24.0649
27.2256 24.0445
27.2263 24.0632
27.227 24.0111
27.2277 24.1036
27.2284 23.997
27.2291 24.0644
27.2297 24.0725
27.2304 24.0068
27.2311 24.0978
27.2318 24.0493
27.2325 23.9984
27.2332 24.0661
27.2342 24.0678
27.2349 24.0632
27.2356 23.9871
27.2363 24.0818
27.237 24.0984
27.2377 24.0686
27.2384 23.9943
27.2391 24.0636
27.2398 24.0668
27.2405 24.0786
27.2411 24.0653
27.2418 24.0062
27.2425 24.0999
27.2432 24.0442
27.2439 23.9917
27.2446 24.0392
27.2453 23.9872
27.246 24.066
27.2467 24.0654
27.2474 24.086
27.2481 24.0635
27.2488 24.0334
27.2495 23.9946
27.2502 24.0659
27.2509 24.0692
27.2516 24.0382
27.2523 24.0671
27.253 24.0252
27.2536 24.06
27.2543 24.0624
27.255 24.0718
27.2557 23.9972
27.2564 24.1032
27.2571 24.0601
27.2578 24.0989
27.2585 24.0441
27.2592 23.9926
27.2599 24.0169
27.2606 24.1016
27.2613 24.0645
27.262 24.0859
27.2627 24.065
27.2634 24.0656
27.2641 24.1004
27.2648 24.0475
27.2655 24.0567
27.2661 24.0597
27.2668 23.9949
27.2675 24.0499
27.2682 24.0677
27.2689 24.0623
27.2696 24.0561
27.2703 24.04
27.271 23.9991
27.2717 24.1029
27.2724 24.0989
27.2731 24.0077
27.2738 24.0856
27.2745 24.0981
27.2755 24.0815
27.2762 24.068
27.2769 24.0686
27.2776 24.0996
27.2783 23.9891
27.2789 24.068
27.2796 24.0671
27.2803 23.9949
27.281 24.0613
27.2817 24.0525
27.2824 24.0726
27.2831 23.9876
27.2838 24.0628
27.2845 24.0581
27.2852 24.0669
27.2859 24.0649
27.2866 24.0684
27.2873 23.9885
27.288 24.07
27.2887 24.0004
27.2894 23.9886
27.2901 24.0579
27.2908 24.0131
27.2914 24.055
27.2921 23.9903
27.2928 24.0673
27.2935 23.9876
27.2942 23.9943
27.2949 23.9884
27.2956 24.0648
27.2963 24.0484
27.297 24.062
27.2977 24.0614
27.2984 24.0564
27.2991 24.0105
27.2998 24.0641
27.3005 24.0905
27.3012 23.9863
27.3019 24.0662
27.3026 24.06
27.3033 24.0196
27.304 24.0687
27.3047 24.0674
27.3053 24.0944
27.306 24.0636
27.3067 24.0673
27.3074 24.0195
27.3081 24.0684
27.3088 24.103
27.3095 23.9931
27.3102 24.0627
27.3109 24.0652
27.3116 24.0271
27.3123 23.9843
27.313 24.0669
27.3137 24.0667
27.3144 24.0679
27.3151 23.9918
27.3158 24.0851
27.3165 24.061
27.3174 24.062
27.3181 24.0648
27.3188 24.0634
27.3195 24.0653
27.3202 24.0063
27.3209 24.0595
27.3216 23.9844
27.3223 24.0654
27.323 24.0659
27.3237 24.0683
27.3244 24.0694
27.3251 24.0653
27.3258 24.0947
27.3265 24.0671
27.3272 24.0108
27.3279 24.0599
27.3286 24.0644
27.3292 24.0671
27.3299 24.0777
27.3306 24.0585
27.3313 24.0657
27.332 24.0593
27.3327 23.9994
27.3334 24.062
27.3341 24.0638
27.3348 24.0621
27.3355 24.0943
27.3362 24.1004
27.3369 24.0938
27.3376 24.0615
27.3383 24.0614
27.339 24.0444
27.3397 24.0644
27.3404 24.0514
27.3411 24.0663
27.3417 24.0667
27.3424 23.9867
27.3431 24.0669
27.3438 23.9984
27.3445 23.9955
27.3452 24.0639
27.3459 24.0688
27.3466 24.0652
27.3473 24.0687
27.348 24.0673
27.3487 24.1031
27.3494 24.0691
27.3501 24.0563
27.3508 24.0574
27.3515 24.0638
27.3522 24.0053
27.3529 24.0606
27.3536 24.0592
27.3542 24.0391
27.3549 24.061
27.3556 24.0622
27.3563 23.9911
27.357 24.0984
27.3577 24.061
27.3587 24.0656
27.3594 23.9878
27.3601 24.0524
27.3608 24.0602
27.3615 24.057
27.3622 24.0656
27.3629 24.0649
27.3636 23.9993
27.3643 24.0009
27.365 24.0657
27.3656 24.0762
27.3663 24.0642
27.367 24.007
27.3677 24.0654
27.3684 24.0683
27.3691 23.9907
27.3698 24.0739
27.3705 23.9929
27.3712 24.0674
27.3719 23.9973
27.3726 24.0421
27.3733 24.047
27.374 24.0593
27.3747 24.0671
27.3754 24.0657
27.3761 24.0743
27.3768 24.0596
27.3775 23.9936
27.3781 23.9858
27.3788 24.0695
27.3795 24.0519
27.3802 24.0644
27.3809 24.0647
27.3816 24.0633
27.3823 24.066
27.383 24.0989
27.3837 24.0522
27.3844 24.065
27.3851 24.0644
27.3858 24.0688
27.3865 24.0447
27.3872 24.0667
27.3879 24.0651
27.3886 24.0638
27.3893 24.0674
27.39 24.102
27.3906 24.0695
27.3913 24.0639
27.392 23.987
27.3927 24.0598
27.3934 24.0653
27.3941 23.9939
27.3948 24.0571
27.3955 24.0772
27.3962 23.9977
27.3969 24.0547
27.3976 24.0677
27.3983 24.071
27.399 24.0655
27.3997 24.0007
27.4007 24.0637
27.4014 24.0671
27.4021 24.0654
27.4028 24.0386
27.4034 23.9929
27.4041 24.0329
27.4048 24.0649
27.4055 24.0336
27.4062 24.0691
27.4069 24.0215
27.4076 23.9661
27.4083 24.0027
27.409 24.0683
27.4097 24.0698
27.4104 24.0642
27.4111 24.0692
27.4118 23.9952
27.4125 24.0704
27.4132 24.064
27.4139 24.0649
27.4146 24.0668
27.4153 24.0488
27.4159 24.0596
27.4166 24.0433
27.4173 24.0618
27.418 24.0409
27.4187 24.0666
27.4194 23.992
27.4201 24.0674
27.4208 24.086
27.4215 24.0656
27.4222 24.0662
27.4229 24.1023
27.4236 24.0777
27.4243 23.9579
27.425 24.0623
27.4257 24.0844
27.4264 24.0648
27.4271 23.9903
27.4278 24.0718
27.4284 24.1032
27.4291 24.0665
27.4298 24.0811
27.4305 24.066
27.4312 24.0414
27.4319 24.0659
27.4326 24.0622
27.4333 24.0707
27.434 24.0662
27.4347 24.0706
27.4354 24.0117
27.4361 24.0645
27.4368 24.0668
27.4375 24.0653
27.4382 24.0625
27.4389 24.0254
27.4396 24.0696
27.4403 24.0645
27.441 24.0692
27.4419 24.0967
27.4426 23.993
27.4433 24.0709
27.444 24.0677
27.4447 24.0223
27.4454 24.0713
27.4461 24.0199
27.4468 24.06
27.4475 23.988
27.4482 24.0598
27.4489 24.025
27.4496 24.066
27.4503 24.0444
27.4509 23.9958
27.4516 24.0683
27.4523 24.0627
27.453 24.0698
27.4537 23.9954
27.4544 24.0628
27.4551 24.0617
27.4558 24.0689
27.4565 23.9895
27.4572 24.0476
27.4579 24.0572
27.4586 24.0379
27.4593 24.0697
27.46 24.0665
27.4607 24.0664
27.4614 24.0874
27.4621 24.0651
27.4628 24.0428
27.4634 24.0653
27.4641 24.0455
27.4648 24.0623
27.4655 24.0681
27.4662 23.9933
27.4669 24.0661
27.4676 23.9914
27.4683 24.0204
27.469 23.9969
27.4697 24.0184
27.4704 23.9928
27.4711 24.0003
27.4718 24.0545
27.4725 24.0988
27.4732 24.0002
27.4739 23.9952
27.4746 24.0675
27.4753 23.9909
27.4759 23.9937
27.4766 24.0662
27.4773 23.9949
27.478 24.0124
27.4787 24.0676
27.4794 23.9951
27.4801 23.9944
27.4808 24.0648
27.4815 24.0189
27.4822 24.0702
27.4829 24.0386
27.4839 23.9911
27.4846 23.9912
27.4853 24.0065
27.486 23.9914
27.4867 24.0803
27.4873 23.9979
27.488 24.0008
27.4887 24.0689
27.4894 24.0653
27.4901 24.0526
27.4908 24.0674
27.4915 24.0686
27.4922 23.9997
27.4929 24.0674
27.4936 24.0719
27.4943 23.9907
27.495 23.9945
27.4957 24.0496
27.4964 24.0663
27.4971 24.0468
27.4978 24.0654
27.4985 24.0559
27.4992 24.061
27.4998 23.9883
27.5005 24.0676
27.5012 24.0637
27.5019 23.9936
27.5026 24.0072
27.5033 24.1012
27.504 24.0082
27.5047 23.9647
27.5054 24.0885
27.5061 24.0649
27.5068 24.0049
27.5075 24.0692
27.5082 24.0524
27.5089 23.9901
27.5096 23.9929
27.5103 23.9921
27.511 23.9882
27.5117 24.0677
27.5123 24.0661
27.513 24.0696
27.5137 24.0594
27.5144 24.0675
27.5151 23.9931
27.5158 24.0659
27.5165 24.0716
27.5172 24.0649
27.5179 24.0113
27.5186 24.0697
27.5193 24.0618
27.52 24.0704
27.5207 24.0152
27.5214 24.0669
27.5221 24.0729
27.5228 24.0701
27.5235 23.9926
27.5242 24.0711
27.5248 24.0651
27.5258 24.0077
27.5265 23.9888
27.5272 24.0047
27.5279 24.0576
27.5286 24.0541
27.5293 24.0023
27.53 23.9994
27.5307 24.052
27.5314 23.9975
27.5321 24.0701
27.5328 24.0629
27.5335 24.0527
27.5342 24.0651
27.5348 23.9907
27.5355 24.0718
27.5362 24.0471
27.5369 23.9944
27.5376 24.0703
27.5383 24.0672
27.539 24.017
27.5397 24.0163
27.5404 24.0745
27.5411 24.0182
27.5418 24.0018
27.5425 24.0183
27.5432 24.0589
27.5439 24.0531
27.5446 23.9915
27.5453 24.0541
27.546 23.9719
27.5467 23.9963
27.5473 24.0882
27.548 24.0695
27.5487 24.0014
27.5494 24.002
27.5501 24.0715
27.5508 24.0682
27.5515 24.0503
27.5522 23.9948
27.5529 24.0705
27.5536 23.9921
27.5543 24.0669
27.555 24.0133
27.5557 24.004
27.5564 24.0461
27.5571 24.0576
27.5578 23.99
27.5585 23.9993
27.5592 24.0082
27.5599 24.0551
27.5606 24.0634
27.5613 24.0003
27.5619 24.0728
27.5626 23.9882
27.5633 24.0067
27.564 24.006
27.5647 24.0044
27.5654 23.9905
27.5661 24.0583
27.5668 24.0197
27.5678 24.1054
27.5685 24.0113
27.5692 24.0613
27.5699 23.9941
27.5706 24.0683
27.5713 23.9751
27.572 24.0501
27.5727 23.9522
27.5733 24.073
27.574 24.0051
27.5747 24.0696
27.5754 24.0198
27.5761 24.0005
27.5768 23.9903
27.5775 23.992
27.5782 24.0686
27.5789 24.0744
27.5796 24.0274
27.5803 23.9944
27.581 24.039
27.5817 24.0743
27.5824 23.9972
27.5831 24.0684
27.5838 23.966
27.5845 24.0651
27.5852 23.9892
27.5858 24.0716
27.5865 24.0361
27.5872 23.9915
27.5879 24.0319
27.5886 23.9991
27.5893 24.0332
27.59 23.9902
27.5907 23.9922
27.5914 24.0666
27.5921 24.0699
27.5928 24.0736
27.5935 24.0712
27.5942 24.0729
27.5949 23.9942
27.5956 24.0718
27.5963 23.9912
27.597 24.0675
27.5977 24.0162
27.5983 23.9897
27.599 24.0718
27.5997 24.0038
27.6004 24.0739
27.6011 23.9951
27.6018 24.0677
27.6025 24.0689
27.6032 24.0159
27.6039 24.0704
27.6046 24.0419
27.6053 24.0668
27.606 24.0383
27.6067 24.0682
27.6074 23.9973
27.6081 23.9959
27.6089 23.9928
27.6096 24.0514
27.6103 24.1057
27.611 24.043
27.6117 23.9928
27.6124 24.0695
27.6131 23.9902
27.6138 24.0141
27.6145 23.9933
27.6152 24.0728
27.6159 24.0654
27.6166 24.0034
27.6173 24.0522
27.618 24.0014
27.6187 24.1007
27.6194 23.9935
27.6201 24.0528
27.6208 24.058
27.6214 24.0695
27.6221 24.0698
27.6228 24.0038
27.6235 24.0719
27.6242 24.0109
27.6249 23.9971
27.6256 24.0762
27.6263 24.0949
27.627 23.999
27.6277 23.9939
27.6284 24.0711
27.6291 23.99
27.6298 24.0617
27.6305 24.0652
27.6312 24.067
27.6319 23.9917
27.6326 23.9949
27.6333 23.9984
27.6339 24.0672
27.6346 24.0691
27.6353 24.0562
27.636 24.0084
27.6367 23.9953
27.6374 24.0708
27.6381 24.0707
27.6388 23.9979
27.6395 24.0681
27.6402 23.9949
27.6409 24.0339
27.6416 24.0566
27.6423 24.0264
27.643 23.9976
27.6437 23.9921
27.6444 24.0029
27.6451 24.0865
27.6458 24.0647
27.6464 24.0497
27.6471 24.0682
27.6478 24.067
27.6485 23.9905
27.6492 24.0979
27.6499 23.9929
27.6509 24.0914
27.6516 23.9535
27.6523 23.9922
27.653 23.9937
27.6537 24.0699
27.6544 24.0662
27.6551 24.04
27.6558 23.9935
27.6565 24.0688
27.6572 23.9612
27.6579 24.0586
27.6586 24.071
27.6592 24.0692
27.6599 24.0543
27.6606 23.9991
27.6613 23.9985
27.662 24.0552
27.6627 24.0741
27.6634 24.0731
27.6641 23.9987
27.6648 23.9992
27.6655 24.0396
27.6662 23.9902
27.6669 24.0842
27.6676 24.0643
27.6683 24.0692
27.669 24.062
27.6697 24.0835
27.6704 24.0684
27.6711 24.0707
27.6717 23.9833
27.6724 24.0591
27.6731 23.9964
27.6738 23.9905
27.6745 24.0664
27.6752 24.0729
27.6759 24.1077
27.6766 23.9801
27.6773 23.9985
27.678 24.0505
27.6787 24.0611
27.6794 23.9886
27.6801 23.9888
27.6808 24.0427
27.6815 24.0991
27.6822 23.9914
27.6829 23.9872
27.6836 23.9956
27.6842 24.0633
27.6849 24.0671
27.6856 23.9974
27.6863 24.0417
27.687 23.9911
27.6877 24.0726
27.6884 24.0714
27.6891 24.0535
27.6898 24.0685
27.6905 24.0549
27.6912 24.0679
27.6919 24.0292
27.6929 24.1108
27.6936 24.0309
27.6943 23.9942
27.695 24.022
27.6956 23.9977
27.6963 24.049
27.697 23.9907
27.6977 24.0142
27.6984 24.066
27.6991 24.0032
27.6998 24.0605
27.7005 24.1031
27.7012 24.0726
27.7019 24.0074
27.7026 24.0748
27.7033 24.0666
27.704 24.0534
27.7047 24.1009
27.7054 24.0733
27.7061 23.9993
27.7068 24.0846
27.7075 24.0708
27.7082 24.0708
27.7089 23.995
27.7096 23.994
27.7103 24.0749
27.7109 24.0495
27.7116 24.0683
27.7123 24.0382
27.713 24.0734
27.7137 24.0403
27.7144 24.0656
27.7151 23.9914
27.7158 23.9984
27.7165 24.0673
27.7172 23.9942
27.7179 24.0322
27.7186 23.9949
27.7193 24.068
27.72 24.0725
27.7207 24.0347
27.7214 24.0154
27.7221 23.9927
27.7228 24.0695
27.7234 24.0532
27.7241 24.0711
27.7248 24.074
27.7255 24.0677
27.7262 24.0693
27.7269 24.0686
27.7276 23.9951
27.7283 24.0706
27.729 23.9899
27.7297 24.0329
27.7304 24.0991
27.7311 24.0324
27.7318 24.0653
27.7325 23.9934
27.7332 23.9923
27.7342 24.0896
27.7348 24.0651
27.7355 24.033
27.7362 24.0658
27.7369 23.9879
27.7376 23.9989
27.7383 24.0322
27.739 24.0715
27.7397 24.0223
27.7404 23.9926
27.7411 24.0672
27.7418 23.9982
27.7425 23.993
27.7432 23.9964
27.7439 24.0243
27.7446 24.0713
27.7453 24.07
27.746 24.0678
27.7467 24.0608
27.7473 24.0637
27.748 24.0301
27.7487 23.9949
27.7494 24.0427
27.7501 23.9887
27.7508 24.0504
27.7515 23.9931
27.7522 24.0376
27.7529 24.0706
27.7536 24.0668
27.7543 23.9893
27.755 23.9926
27.7557 24.0641
27.7564 24.0705
27.7571 24.0697
27.7578 24.0354
27.7585 24.0671
27.7592 23.9925
27.7598 24.0609
27.7605 23.9925
27.7612 24.0618
27.7619 24.0194
27.7626 24.0678
27.7633 23.9904
27.764 24.0683
27.7647 24.0689
27.7654 23.9984
27.7661 24.0785
27.7668 24.07
27.7675 24.008
27.7682 24.068
27.7689 24.0115
27.7696 24.0699
27.7703 24.0694
27.771 23.9915
27.7717 24.0712
27.7723 24.071
27.773 24.0686
27.7737 23.9936
27.7744 24.0444
27.7751 24.0681
27.7761 24.0002
27.7768 24.0173
27.7775 24.0754
27.7782 24.074
27.7789 24.0026
27.7796 24.0766
27.7803 24.0546
27.781 23.9895
27.7817 24.0715
27.7824 24.1048
27.7831 24.0041
27.7838 24.0729
27.7845 23.9958
27.7852 24.0674
27.7859 24.0659
27.7866 24.0699
27.7872 23.9947
27.7879 24.1058
27.7886 24.049
27.7893 23.9899
27.79 23.9934
27.7907 24.0684
27.7914 24.066
27.7921 24.0329
27.7928 23.9946
27.7935 24.0925
27.7942 24.0698
27.7949 24.0689
27.7956 23.9901
27.7963 24.0153
27.797 24.066
27.7977 24.0674
27.7984 24.0691
27.7991 24.0402
27.7997 23.9971
27.8004 24.0678
27.8011 23.9919
27.8018 24.0677
27.8025 24.0694
27.8032 23.9899
27.8039 24.0577
27.8046 24.0704
27.8053 24.0694
27.806 24.0666
27.8067 24.0887
27.8074 24.0609
27.8081 24.0544
27.8088 24.0707
27.8095 24.0547
27.8102 24.068
27.8109 24.0603
27.8116 24.0711
27.8122 24.0541
27.8129 24.0646
27.8136 24.0546
27.8143 24.0667
27.815 23.9857
27.8157 24.0702
27.8164 24.0109
27.8174 24.0209
27.8181 24.0666
27.8188 24.0633
27.8195 24.06
27.8202 24.0058
27.8209 24.0003
27.8216 24.0675
27.8223 24.0613
27.823 24.0758
27.8237 23.9903
27.8244 23.9982
27.825 23.9992
27.8257 24.0739
27.8264 24.055
27.8271 24.0634
27.8278 24.0029
27.8285 24.0689
27.8292 24.0682
27.8299 24.0682
27.8306 23.9892
27.8313 24.0663
27.832 24.002
27.8327 23.9985
27.8334 24.0678
27.8341 24.0687
27.8348 24.0058
27.8355 24.0618
27.8362 24.0515
27.8369 23.9892
27.8375 24.0697
27.8382 24.0655
27.8389 24.0681
27.8396 24.046
27.8403 24.0735
27.841 24.0438
27.8417 24.1002
27.8424 24.0131
27.8431 23.9911
27.8438 24.0673
27.8445 24.0669
27.8452 24.0698
27.8459 24.0589
27.8466 24.0544
27.8473 24.051
27.848 24.0639
27.8487 23.9798
27.8494 23.9955
27.85 23.9918
27.8507 24.0696
27.8514 24.0723
27.8521 23.9934
27.8528 24.064
27.8535 24.0656
27.8542 23.9914
27.8549 24.0267
27.8556 24.0654
27.8563 24.0248
27.857 24.0622
27.8577 23.9928
27.8584 24.0995
27.8594 24.0403
27.8601 24.1031
27.8608 23.9908
27.8615 24.0989
27.8622 24.013
27.8628 24.0668
27.8635 24.0724
27.8642 24.0004
27.8649 24.0752
27.8656 24.0687
27.8663 24.0483
27.867 24.0642
27.8677 24.038
27.8684 23.989
27.8691 24.0716
27.8698 23.9883
27.8705 24.0316
27.8712 24.0648
27.8719 24.0336
27.8726 24.0671
27.8733 24.066
27.874 24.0625
27.8747 24.0682
27.8753 23.9642
27.876 24.074
27.8767 23.9867
27.8774 24.0949
27.8781 23.9974
27.8788 24.0097
27.8795 23.9992
27.8802 24.0401
27.8809 23.9886
27.8816 24.0676
27.8823 23.9503
27.883 24.0326
27.8837 24.0699
27.8844 24.0282
27.8851 23.9938
27.8858 24.0338
27.8865 24.0588
27.8872 24.0665
27.8878 23.9876
27.8885 24.0118
27.8892 23.988
27.8899 23.9935
27.8906 24.0635
27.8913 24.0637
27.892 23.9883
27.8927 24.0231
27.8934 24.0618
27.8941 24.0506
27.8948 24.0993
27.8955 24.066
27.8962 23.9936
27.8969 24.0719
27.8976 23.9551
27.8983 24.0659
27.899 23.9506
27.8997 24.0694
27.9003 24.0667
27.9014 23.9934
27.902 23.9873
27.9027 24.0631
27.9034 24.0467
27.9041 24.0632
27.9048 24.0179
27.9055 24.0618
27.9062 24.0633
27.9069 23.984
27.9076 24.0229
27.9083 24.002
27.909 23.9966
27.9097 24.0021
27.9104 24.0652
27.9111 23.9939
27.9118 24.0702
27.9125 24.0621
27.9132 24.007
27.9139 23.9941
27.9145 24.0705
27.9152 24.0924
27.9159 23.9856
27.9166 24.0518
27.9173 24.0677
27.918 24.0661
27.9187 24.0653
27.9194 23.9868
27.9201 24.0554
27.9208 24.0649
27.9215 24.0672
27.9222 23.993
27.9229 24.0689
27.9236 24.0022
27.9243 24.0676
27.925 23.9988
27.9257 24.0047
27.9264 23.9974
27.927 24.008
27.9277 24.0604
27.9284 24.0511
27.9291 24.0651
27.9298 24.0624
27.9305 24.0117
27.9312 24.0725
27.9319 24.0135
27.9326 24
27.9333 24.0722
27.934 24.056
27.9347 24.0069
27.9354 24.0063
27.9361 24.0681
27.9368 23.9925
27.9375 24.0692
27.9382 24.0651
27.9389 23.9947
27.9395 24.0684
27.9402 24.0394
27.9409 24.0664
27.9416 24.0794
27.9426 24.0581
27.9433 24.0421
27.944 23.9901
27.9447 24.066
27.9454 24.0683
27.9461 24.0677
27.9468 24.0629
27.9475 24.0977
27.9482 23.977
27.9489 24.0003
27.9496 23.996
27.9503 23.9961
27.9509 23.9933
27.9516 24.0344
27.9523 24.0645
27.953 23.975
27.9537 24.0649
27.9544 24.0664
27.9551 23.9976
27.9558 24.01
27.9565 23.9924
27.9572 24.0675
27.9579 23.9987
27.9586 24.0062
27.9593 23.9706
27.96 24.0707
27.9607 24.0696
27.9614 24.07
27.9621 24.0674
27.9628 24.0006
27.9634 24.0549
27.9641 24.0652
27.9648 23.961
27.9655 24.0644
27.9662 24.0035
27.9669 24.1032
27.9676 24.047
27.9683 23.988
27.969 24.0781
27.9697 23.9975
27.9704 24.0086
27.9711 23.992
27.9718 24.046
27.9725 24.0646
27.9732 24.0678
27.9739 23.9888
27.9746 24.0704
27.9753 23.9885
27.9759 23.9908
27.9766 24.068
27.9773 24.0662
27.978 24.0706
27.9787 24.0075
27.9794 24.0668
27.9801 24.0702
27.9808 24.0619
27.9815 24.0689
27.9822 23.9947
27.9829 24.0641
27.9836 23.9958
27.9846 24.1057
27.9853 24.0212
27.986 24.0684
27.9867 24.0164
27.9873 24.0656
27.988 24.0249
27.9887 24.0731
27.9894 24.0703
27.9901 24.07
27.9908 24.0876
27.9915 24.0555
27.9922 24.0385
27.9929 24.0672
27.9936 24.017
27.9943 24.0559
27.995 24.0742
27.9957 23.9977
27.9964 24.0451
27.9971 23.9997
27.9978 24.0598
27.9985 24.0956
27.9992 24.0263
27.9998 24.1021
28.0005 24.032
28.0012 23.9978
28.0019 24.0342
28.0026 24.0047
28.0033 24.0671
28.004 24.0713
28.0047 24.0685
28.0054 23.9943
28.0061 24.0773
28.0068 24.0548
28.0075 24.07
28.0082 24.0763
28.0089 24.0684
28.0096 24
28.0103 23.9902
28.011 24.074
28.0117 24.066
28.0123 24.0699
28.013 24.0691
28.0137 24.0603
28.0144 24.0753
28.0151 24.0573
28.0158 24.0676
28.0165 24.0652
28.0172 24.0978
28.0179 24.0007
28.0186 24.066
28.0193 24.0855
28.02 23.9892
28.0207 24.0529
28.0214 24.0657
28.0221 24.0979
28.0228 24.0709
28.0235 24.0838
28.0242 24.1074
28.0248 24.0684
28.0258 24.0658
28.0265 24.0699
28.0272 24.0685
28.0279 24.0622
28.0286 24.0646
28.0293 24.0655
28.03 24.1039
28.0307 24.0057
28.0314 23.9906
28.0321 24.0695
28.0328 24.0709
28.0335 24.0635
28.0342 24.0599
28.0349 24.0922
28.0356 24.0691
28.0362 24.065
28.0369 24.0662
28.0376 24.0673
28.0383 24.0644
28.039 24.0659
28.0397 23.9543
28.0404 24.0899
28.0411 24.07
28.0418 24.0665
28.0425 24.0598
28.0432 24.089
28.0439 24.0633
28.0446 24.0886
28.0453 24.0695
28.046 24.0305
28.0467 24.058
28.0474 24.065
28.0481 24.0688
28.0487 24.0125
28.0494 23.9928
28.0501 24.0367
28.0508 24.0702
28.0515 24.0907
28.0522 24.063
28.0529 24.0897
28.0536 24.0974
28.0543 24.088
28.055 24.1037
28.0557 24.0659
28.0564 24.0643
28.0571 24.0322
28.0578 24.069
28.0585 24.0672
28.0592 24.1014
28.0599 24.0632
28.0606 24.1024
28.0613 24.0161
28.0619 23.9929
28.0626 24.0686
28.0633 24.0702
28.064 24.0799
28.0647 24.0655
28.0654 24.0131
28.0661 23.9534
28.0668 24.0243
28.0678 24.0922
28.0685 24.0525
28.0692 24.0689
28.0699 24.0704
28.0706 24.0653
28.0713 23.9902
28.072 24.0787
28.0727 24.0699
28.0734 24.0645
28.0741 24.1051
28.0747 24.0692
28.0754 24.0866
28.0761 24.0652
28.0768 24.0685
28.0775 24.0634
28.0782 24.0671
28.0789 24.1044
28.0796 24.0242
28.0803 24.0653
28.081 24.0391
28.0817 24.101
28.0824 24.0951
28.0831 24.0663
28.0838 23.9928
28.0845 24.0745
28.0852 24.0263
28.0859 24.0685
28.0866 24.0373
28.0872 24.0672
28.0879 24.0735
28.0886 24.0685
28.0893 23.9975
28.09 24.0661
28.0907 24.0586
28.0914 24.0582
28.0921 24.0733
28.0928 24.0651
28.0935 24.055
28.0942 24.1017
28.0949 24.0699
28.0956 24.1058
28.0963 24.0599
28.097 24.0667
28.0977 24.0676
28.0984 24.0668
28.0991 24.0684
28.0997 24.0689
28.1004 24.0403
28.1011 24.0676
28.1018 24.0105
28.1025 24.0811
28.1032 24.063
28.1039 24.0689
28.1046 24.0747
28.1053 24.0711
28.106 24.0669
28.1067 24.1019
28.1074 23.9912
28.1081 24.0988
28.1088 24.0063
28.1098 24.0741
28.1105 24.0992
28.1112 24.0665
28.1119 24.0047
28.1125 24.0655
28.1132 24.0705
28.1139 24.0638
28.1146 24.045
28.1153 24.0679
28.116 24.0369
28.1167 24.0607
28.1174 24.0744
28.1181 24.0662
28.1188 24.0723
28.1195 24.0664
28.1202 24.0523
28.1209 24.0672
28.1216 24.068
28.1223 24.1012
28.123 24.0056
28.1237 24.04
28.1244 24.0683
28.1251 24.0684
28.1258 24.1024
28.1264 24.0638
28.1271 24.0751
28.1278 24.0671
28.1285 24.0655
28.1292 24.0008
28.1299 23.9991
28.1306 24.0679
28.1313 24.0592
28.132 24.0508
28.1327 23.9922
28.1334 24.0997
28.1341 24.0694
28.1348 24.0681
28.1355 24.0716
28.1362 24.0581
28.1369 23.9992
28.1376 24.0713
28.1383 24.0667
28.1389 24.0644
28.1396 24.0645
28.1403 24.0293
28.141 24.0687
28.1417 24.0135
28.1424 24.0566
28.1431 24.0642
28.1438 24.0718
28.1445 24.0728
28.1452 24.0667
28.1459 24.0974
28.1466 24.0677
28.1473 24.0126
28.148 24.066
28.1487 23.9886
28.1494 24.0624
28.1501 24.0649
28.151 24.0662
28.1517 24.0202
28.1524 24.0672
28.1531 23.9897
28.1538 24.0629
28.1545 24.099
28.1552 24.0704
28.1559 24.006
28.1566 24.0652
28.1573 24.0573
28.158 24.0713
28.1587 24.0689
28.1594 23.9881
28.1601 24.0734
28.1608 24.0679
28.1615 24.1061
28.1622 24.069
28.1628 24.0663
28.1635 24.0697
28.1642 24.1072
28.1649 24.0704
28.1656 24.0834
28.1663 23.9972
28.167 24.0225
28.1677 24.0718
28.1684 24.0688
28.1691 23.9952
28.1698 24.0271
28.1705 24.0722
28.1712 23.9902
28.1719 24.0643
28.1726 24.0924
28.1733 24.0699
28.174 24.0662
28.1747 24.0684
28.1753 24.0124
28.176 24.0647
28.1767 24.0628
28.1774 24.0587
28.1781 24.0868
28.1788 23.9961
28.1795 24.0677
28.1802 24.0613
28.1809 24.087
28.1816 24.0723
28.1823 24.069
28.183 24.0647
28.1837 24.0684
28.1844 24.0686
28.1851 24.072
28.1858 24.0918
28.1865 24.0098
28.1872 24.0702
28.1878 24.0686
28.1885 24.0647
28.1892 24.0661
28.1899 24.0684
28.1906 24.0669
28.1913 23.9973
28.192 24.0274
28.193 24.0238
28.1937 24.0685
28.1944 24.0261
28.1951 24.0713
28.1958 24.0838
28.1965 24.0635
28.1972 24.0688
28.1979 23.9928
28.1986 24.0416
28.1992 23.9955
28.1999 24.008
28.2006 24.0705
28.2013 24.0077
28.202 24.0649
28.2027 24.0195
28.2034 24.1051
28.2041 24.0668
28.2048 23.9942
28.2055 24.0452
28.2062 23.9885
28.2069 24.1054
28.2076 24.1005
28.2083 24.1012
28.209 24.1006
28.2097 24.0781
28.2104 24.0693
28.2111 24.0506
28.2117 23.9984
28.2124 24.0528
28.2131 24.0666
28.2138 24.0721
28.2145 24.0287
28.2152 24.0979
28.2159 24.1007
28.2166 24.0046
28.2173 24.0684
28.218 24.0653
28.2187 23.991
28.2194 24.0698
28.2201 24.0658
28.2208 24.0856
28.2215 23.9901
28.2222 24.0689
28.2229 24.0931
28.2236 24.0031
28.2242 24.0665
28.2249 24.0743
28.2256 24.0706
28.2263 24.0455
28.227 24.0692
28.2277 24.0642
28.2284 23.9918
28.2291 24.0173
28.2298 24.0663
28.2305 24.0191
28.2312 24.0638
28.2319 24.043
28.2326 24.1019
28.2333 24.0699
28.2343 23.9938
28.235 24.0345
28.2356 24.0646
28.2363 24.0691
28.237 23.9944
28.2377 24.0683
28.2384 24.0695
28.2391 24.0834
28.2398 24.0685
28.2405 24.0889
28.2412 24.0694
28.2419 24.0673
28.2426 24.0797
28.2433 24.0718
28.244 24.0677
28.2447 24.0668
28.2454 24.0553
28.2461 24.0037
28.2468 24.046
28.2475 23.9997
28.2481 24.0638
28.2488 24.0563
28.2495 24.0009
28.2502 24.0657
28.2509 24.0658
28.2516 24.0893
28.2523 23.9968
28.253 24.0541
28.2537 23.9985
28.2544 24.0664
28.2551 23.9899
28.2558 24.0536
28.2565 24.1034
28.2572 24.0492
28.2579 24.0704
28.2586 24.0676
28.2593 24.0678
28.26 24.0662
28.2606 24.108
28.2613 24.0967
28.262 23.9945
28.2627 24.0676
28.2634 24.0656
28.2641 24.0995
28.2648 23.9886
28.2655 24.0683
28.2662 24.0726
28.2669 24.064
28.2676 24.0691
28.2683 23.992
28.269 24.0669
28.2697 24.0677
28.2704 24.0711
28.2711 24.0648
28.2718 24.0732
28.2725 24.0048
28.2731 24.0023
28.2738 24.0666
28.2745 24.0684
28.2752 24.0105
28.2762 24.0682
28.2769 24.0672
28.2776 24.0734
28.2783 24.0798
28.279 24.0686
28.2797 24.0658
28.2804 24.0698
28.2811 23.9977
28.2818 24.0748
28.2825 24.0681
28.2832 23.9915
28.2839 24.1061
28.2845 24.065
28.2852 24.0256
28.2859 24.0673
28.2866 24.0206
28.2873 24.0661
28.288 24.019
28.2887 24.0706
28.2894 24.0676
28.2901 23.9908
28.2908 24.0794
28.2915 24.0497
28.2922 24.0716
28.2929 23.9997
28.2936 24.0028
28.2943 24.0091
28.295 24.0958
28.2957 24.1034
28.2964 24.0665
28.297 24.0772
28.2977 24.0607
28.2984 23.9885
28.2991 24.1065
28.2998 24.0679
28.3005 24.068
28.3012 24.0693
28.3019 24.1058
28.3026 24.0814
28.3033 24.0982
28.304 24.0484
28.3047 24.0683
28.3054 24.0167
28.3061 24.1043
28.3068 24.0727
28.3075 24.1065
28.3082 24.0705
28.3089 23.9975
28.3095 24.0695
28.3102 24.0659
28.3109 24.0221
28.3116 24.0641
28.3123 24.0902
28.313 23.9896
28.3137 24.0347
28.3144 24.0629
28.3151 24.0715
28.3158 24.0667
28.3165 24.0244
28.3172 24.062
28.3182 24.0152
28.3189 23.9966
28.3196 24.0724
28.3203 24.0673
28.3209 24.0104
28.3216 24.0651
28.3223 24.0361
28.323 24.0661
28.3237 24.0383
28.3244 24.0725
28.3251 24.0004
28.3258 24.0944
28.3265 23.9859
28.3272 23.9614
28.3279 24.0674
28.3286 24.1045
28.3293 24.0655
28.33 24.07
28.3307 24.0503
28.3314 24.0629
28.3321 24.0692
28.3328 24.0842
28.3334 24.1113
28.3341 24.0673
28.3348 24.0597
28.3355 24.0968
28.3362 24.0744
28.3369 24.0591
28.3376 24.0061
28.3383 24.103
28.339 23.9921
28.3397 24.0675
28.3404 23.9977
28.3411 24.0804
28.3418 24.0007
28.3425 24.0288
28.3432 23.9988
28.3439 24.08
28.3446 24.0014
28.3453 24.0121
28.3459 24.1026
28.3466 24.0936
28.3473 23.9946
28.348 24.1082
28.3487 23.9892
28.3494 24.0323
28.3501 23.991
28.3508 24.0867
28.3515 24.0648
28.3522 24.0684
28.3529 24.0675
28.3536 24.0784
28.3543 24.065
28.355 24.0649
28.3557 24.0658
28.3564 24.0696
28.3571 24.1033
28.3578 24.0339
28.3584 24.0995
28.3594 24.0681
28.3601 24.0683
28.3608 24.0709
28.3615 24.0681
28.3622 24.0681
28.3629 24.1085
28.3636 24.0645
28.3643 24.0708
28.365 24.0675
28.3657 24.0229
28.3664 24.0635
28.3671 24.0675
28.3678 23.9922
28.3685 23.9885
28.3692 23.9921
28.3698 24.037
28.3705 24.0627
28.3712 24.0344
28.3719 24.0619
28.3726 24.0269
28.3733 23.9944
28.374 24.0309
28.3747 24.0734
28.3754 23.9924
28.3761 23.9902
28.3768 24.0732
28.3775 23.9996
28.3782 24.0404
28.3789 24.069
28.3796 24.096
28.3803 24.0691
28.381 24.016
28.3817 24.1044
28.3823 24.0773
28.383 24.1083
28.3837 24.0666
28.3844 24.1068
28.3851 24.0678
28.3858 24.0687
28.3865 24.0716
28.3872 24.0672
28.3879 24.0883
28.3886 24.0648
28.3893 24.0686
28.39 24.0701
28.3907 24.0322
28.3914 23.9983
28.3921 24.091
28.3928 24.0635
28.3935 24.0396
28.3942 24.0603
28.3948 23.9877
28.3955 23.9994
28.3962 24.0661
28.3969 24.0702
28.3976 24.0516
28.3983 24.0671
28.399 24.0964
28.3997 24.0052
28.4004 23.9969
28.4014 23.9948
28.4021 24.0863
28.4028 24.0661
28.4035 24.0503
28.4042 24.0637
28.4049 23.9887
28.4056 24.0684
28.4063 24.0395
28.407 24.094
28.4077 24.063
28.4083 24.0726
28.409 24.0289
28.4097 24.0715
28.4104 24.0678
28.4111 24.066
28.4118 24.0687
28.4125 24.0583
28.4132 24.0203
28.4139 24.0556
28.4146 24.0491
28.4153 24.0042
28.416 24.0523
28.4167 23.9989
28.4174 24.0674
28.4181 24.0724
28.4188 23.9991
28.4195 24.0778
28.4202 24.1003
28.4208 24.0999
28.4215 24.0689
28.4222 24.0981
28.4229 24.0007
28.4236 24.0694
28.4243 23.9953
28.425 23.9929
28.4257 24.0651
28.4264 24.0676
28.4271 24.0678
28.4278 24.0464
28.4285 24.0719
28.4292 24.0231
28.4299 24.1072
28.4306 24.0697
28.4313 24.1053
28.432 24.0816
28.4327 24.0694
28.4333 24.0886
28.434 24.0666
28.4347 24.0319
28.4354 24.0699
28.4361 24.0694
28.4368 24.1058
28.4375 24.0367
28.4382 24.0713
28.4389 24.0658
28.4396 23.9988
28.4403 24.0704
28.441 24.0761
28.4417 24.0834
28.4424 24.0699
28.4434 24.0679
28.4441 23.9893
28.4447 24.0682
28.4454 24.0647
28.4461 24.0684
28.4468 24.0617
28.4475 24.0302
28.4482 24.0006
28.4489 24.0843
28.4496 24.0629
28.4503 24.0706
28.451 24.0685
28.4517 24.0465
28.4524 24.0588
28.4531 24.0723
28.4538 24.0708
28.4545 24.0709
28.4552 24.0655
28.4559 24.0499
28.4566 23.9725
28.4572 24.0612
28.4579 24.104
28.4586 24.0738
28.4593 24.0718
28.46 24.0634
28.4607 24.071
28.4614 23.9978
28.4621 24.0686
28.4628 24.0687
28.4635 24.0684
28.4642 24.0525
28.4649 23.998
28.4656 24.0681
28.4663 23.9813
28.467 24.0668
28.4677 24.0698
28.4684 24.0699
28.4691 24.0607
28.4697 24.0202
28.4704 23.9953
28.4711 24.0218
28.4718 24.109
28.4725 24.04
28.4732 24.0025
28.4739 24.0438
28.4746 24.0634
28.4753 24.0676
28.476 24.0698
28.4767 24.087
28.4774 24.0687
28.4781 24.0704
28.4788 23.9919
28.4795 24.0748
28.4802 23.992
28.4809 24.0721
28.4816 24.0572
28.4822 24.0697
28.4829 24.0708
28.4836 24.0695
28.4846 24.0703
28.4853 24.0711
28.486 24.102
28.4867 24.0692
28.4874 24.07
28.4881 24.0649
28.4888 24.0683
28.4895 24.073
28.4902 24.0995
28.4909 24.1065
28.4916 24.0691
28.4923 23.994
28.493 24.0126
28.4937 24.1049
28.4944 24.0731
28.495 24.0695
28.4957 24.0685
28.4964 24.0718
28.4971 24.0724
28.4978 24.1095
28.4985 24.0687
28.4992 24.0126
28.4999 24.0597
28.5006 24.0724
28.5013 24.07
28.502 24.0624
28.5027 24.0103
28.5034 24.0646
28.5041 24.0787
28.5048 24.0726
28.5055 24.0695
28.5062 24.0744
28.5069 24.0698
28.5075 24.0279
28.5082 23.9992
28.5089 24.0651
28.5096 24.0965
28.5103 23.9921
28.511 23.9964
28.5117 24.0177
28.5124 24.0684
28.5131 24.0735
28.5138 24.0666
28.5145 24.0976
28.5152 23.992
28.5159 24.0724
28.5166 24.0749
28.5173 24.0746
28.518 24.0739
28.5187 24.0498
28.5194 23.9977
28.52 24.071
28.5207 24.0619
28.5214 24.0587
28.5221 24.0651
28.5228 24.047
28.5235 24.0741
28.5242 24.0347
28.5249 24.0724
28.5256 24.0875
28.5266 24.0657
28.5273 23.9927
28.528 24.0156
28.5287 24.1023
28.5294 24.1036
28.5301 24.0688
28.5308 24.0778
28.5315 24.0681
28.5322 24.0685
28.5328 24.0687
28.5335 24.0712
28.5342 24.0744
28.5349 24.0276
28.5356 24.0689
28.5363 24.0731
28.537 24.0718
28.5377 24.0891
28.5384 24.0618
28.5391 24.0705
28.5398 24.0744
28.5405 24.0385
28.5412 23.9969
28.5419 24.0725
28.5426 24.0645
28.5433 24.0694
28.544 24.073
28.5447 24.0283
28.5453 24.0713
28.546 24.0947
28.5467 24.0683
28.5474 24.0132
28.5481 23.9923
28.5488 24.0407
28.5495 24.068
28.5502 24.0698
28.5509 24.0659
28.5516 24.0969
28.5523 24.0026
28.553 24.0707
28.5537 23.9959
28.5544 24.0712
28.5551 24.0709
28.5558 24.0704
28.5565 24.071
28.5572 24.0706
28.5579 24.074
28.5586 24.0727
28.5592 24.11
28.5599 24.0324
28.5606 24.0721
28.5613 24.0659
28.562 23.9961
28.5627 24.0246
28.5634 24.0653
28.5641 24.0744
28.5648 24.0706
28.5655 24.0695
28.5662 24.0045
28.5669 24.0949
28.5679 24.0079
28.5686 23.9928
28.5693 24.0792
28.57 24.1087
28.5706 24.0722
28.5713 24.0725
28.572 24.0831
28.5727 24.0701
28.5734 24.0678
28.5741 24.0695
28.5748 24.0715
28.5755 24.1073
28.5762 24.0665
28.5769 23.9994
28.5776 24.0491
28.5783 24.07
28.579 24.0675
28.5797 24.0668
28.5804 24.0366
28.5811 24.0728
28.5818 24.0244
28.5825 24.1094
28.5831 24.1004
28.5838 23.9921
28.5845 24.0157
28.5852 24.074
28.5859 24.0711
28.5866 24.0724
28.5873 24.0739
28.588 24.0639
28.5887 24.0247
28.5894 24.0743
28.5901 24.0707
28.5908 24.0716
28.5915 24.0927
28.5922 24.0711
28.5929 24.071
28.5936 24.0723
28.5943 24.0385
28.595 24.0637
28.5956 24.0945
28.5963 24.0727
28.597 24.0941
28.5977 24.0704
28.5984 24.0812
28.5991 24.0718
28.5998 24.1074
28.6005 24.0687
28.6012 24.0732
28.6019 24.066
28.6026 24.097
28.6033 23.9917
28.604 24.0384
28.6047 23.9903
28.6054 23.9887
28.6061 23.9991
28.6068 24.0442
28.6075 24.108
28.6081 24.0707
28.6088 24.0718
28.6098 24.017
28.6105 24.0554
28.6112 24.0692
28.6119 24.07
28.6126 24.1066
28.6133 24.0524
28.614 23.998
28.6147 24.0526
28.6153 23.9961
28.616 24.0808
28.6167 23.9915
28.6174 24.0696
28.6181 24.0655
28.6188 24.0681
28.6195 24.0727
28.6202 24.0702
28.6209 24.0688
28.6216 24.0757
28.6223 24.0706
28.623 24.0729
28.6237 24.0678
28.6244 24.0734
28.6251 24.1022
28.6258 24.0026
28.6265 24.0743
28.6272 24.0719
28.6278 24.0039
28.6285 24.0726
28.6292 24.0003
28.6299 24.1066
28.6306 24.1022
28.6313 24.07
28.632 24.0013
28.6327 24.0555
28.6334 24.0726
28.6341 24.081
28.6348 24.1039
28.6355 24.0751
28.6362 24.0699
28.6369 24.1024
28.6376 24.0667
28.6383 24.0738
28.639 24.0735
28.6397 24.0553
28.6403 24.0706
28.641 24.0542
28.6417 24.0691
28.6424 24.07
28.6431 24.0752
28.6438 24.0676
28.6445 24.0672
28.6452 24.0908
28.6459 24.1092
28.6466 24.0715
28.6473 24.1076
28.648 24.0676
28.6487 24.1062
28.6494 24.0844
28.6501 23.9947
28.6508 24.1058
28.6517 24.09
28.6524 24.0734
28.6531 24.0717
28.6538 24.0718
28.6545 24.0686
28.6552 24.0718
28.6559 24.0954
28.6566 24.0072
28.6573 24.0731
28.658 24.0752
28.6587 24.0728
28.6594 24.0692
28.6601 24.0678
28.6608 24.0672
28.6615 24.0018
28.6622 24.0726
28.6629 24.0671
28.6636 24.071
28.6642 24.076
28.6649 24.0103
28.6656 24.0725
28.6663 24.0765
28.667 24.083
28.6677 24.0764
28.6684 24.067
28.6691 24.073
28.6698 24.0748
28.6705 24.1081
28.6712 24.0104
28.6719 24.0694
28.6726 24.0705
28.6733 24.0727
28.674 24.0984
28.6747 24.1053
28.6754 24.0928
28.6761 24.1018
28.6767 24.1077
28.6774 24.0694
28.6781 24.0345
28.6788 24.0695
28.6795 24.0356
28.6802 24.0632
28.6809 24.0361
28.6816 24.1191
28.6823 24.0734
28.683 24.1053
28.6837 24.0867
28.6844 24.0725
28.6851 24.0708
28.6858 24.1049
28.6865 24.0436
28.6872 24.0757
28.6879 24.0722
28.6886 24.078
28.6892 24.0661
28.6899 24.0665
28.6906 24.0096
28.6913 24.0706
28.692 24.074
28.693 24.0673
28.6937 24.0842
28.6944 24.0675
28.6951 24.0233
28.6958 23.9983
28.6965 24.0721
28.6972 24.0698
28.6979 24.0694
28.6986 24.0686
28.6993 24.0889
28.7 23.997
28.7006 24.0424
28.7013 24.0698
28.702 24.0332
28.7027 24.0765
28.7034 24.0277
28.7041 24.0715
28.7048 24.086
28.7055 24.0701
28.7062 24.0847
28.7069 24.0757
28.7076 24.0887
28.7083 24.0698
28.709 24.0717
28.7097 24.0719
28.7104 24.0154
28.7111 24.0667
28.7118 24.014
28.7125 23.999
28.7131 24.1029
28.7138 24.0702
28.7145 24.0733
28.7152 24.09
28.7159 24.0724
28.7166 24.0463
28.7173 24.0682
28.718 24.0734
28.7187 24.0757
28.7194 23.9895
28.7201 24.0058
28.7208 24.0691
28.7215 24.0738
28.7222 24.0653
28.7229 24.0626
28.7236 24.0747
28.7243 24.077
28.725 24.1052
28.7256 24.0095
28.7263 24.0021
28.727 24.1061
28.7277 24.0012
28.7284 24.0718
28.7291 24.0267
28.7298 24.0967
28.7305 24.0717
28.7312 24.0704
28.7319 24.072
28.7326 24.0718
28.7333 24.0698
28.734 24.0731
28.7349 23.9965
28.7356 24.1041
28.7362 24.0716
28.7369 24.0779
28.7376 24.0677
28.7383 24.1117
28.739 24.0744
28.7397 24.072
28.7404 24.0695
28.7411 24.0687
28.7418 24.0691
28.7425 24.079
28.7432 24.0659
28.7439 24.0766
28.7446 24.0601
28.7453 24.1048
28.746 24.0667
28.7467 24.065
28.7474 24.0732
28.7481 24.1009
28.7488 24.1089
28.7494 24.0233
28.7501 24.0709
28.7508 24.0844
28.7515 24.1119
28.7522 24.0984
28.7529 24.0686
28.7536 24.0112
28.7543 24.0708
28.755 24.0688
28.7557 24.0993
28.7564 24.0621
28.7571 24.0723
28.7578 24.0803
28.7585 24.0762
28.7592 24.0577
28.7599 24.0719
28.7606 24.0713
28.7613 24.1119
28.7619 24.1074
28.7626 24.1067
28.7633 24.0704
28.764 23.9994
28.7647 24.1076
28.7654 24.1049
28.7661 24.0554
28.7668 24.0685
28.7675 24.02
28.7682 24.0692
28.7689 24.0158
28.7696 24.0682
28.7703 24.0173
28.771 24.0702
28.7717 24.0729
28.7724 24.0331
28.7731 24.0695
28.7737 24.0717
28.7744 24.061
28.7751 24.0701
28.776 24.1053
28.7768 24.0773
28.7775 24.0719
28.7782 24.0073
28.7789 24.0744
28.7796 23.9912
28.7803 24.0584
28.781 24.0028
28.7817 24.0685
28.7823 24.1039
28.783 23.9971
28.7837 24.0675
28.7844 24.0924
28.7851 24.1041
28.7858 24.0728
28.7865 24.0724
28.7872 24.0724
28.7879 24.1102
28.7886 24.0857
28.7893 24.0676
28.79 24.0722
28.7907 24.0747
28.7914 24.0426
28.7921 24.074
28.7928 24.1095
28.7935 24.0001
28.7942 24.0721
28.7948 24.0109
28.7955 23.9848
28.7962 24.0759
28.7969 24.0168
28.7976 24.082
28.7983 23.9941
28.799 24.1058
28.7997 24.0714
28.8004 24.0707
28.8011 24.0339
28.8018 24.0615
28.8025 24.039
28.8032 24.1044
28.8039 24.0301
28.8046 24.0708
28.8053 24.0249
28.806 24.0773
28.8067 24.0692
28.8074 24.0716
28.8081 24.0355
28.8087 24.0001
28.8094 24.0915
28.8101 24.0733
28.8108 24.0734
28.8115 24.0005
28.8122 24.1011
28.8129 24.0021
28.8136 24.0562
28.8143 24.0717
28.815 24.029
28.8157 24.0782
28.8164 24.0718
28.8171 24.003
28.818 23.9971
28.8187 24.0741
28.8194 24.0535
28.8201 24.0728
28.8208 24.0163
28.8215 24.0797
28.8222 24.0722
28.8229 24.0714
28.8236 23.9989
28.8243 24.0705
28.825 24.1016
28.8257 24.0671
28.8264 24.1045
28.8271 24.0744
28.8278 24.1039
28.8285 24.1054
28.8292 24.0026
28.8298 24.0681
28.8305 24.0677
28.8312 24.0122
28.8319 24.1108
28.8326 24.0961
28.8333 24.0635
28.834 24.0956
28.8347 24.0702
28.8354 24.0833
28.8361 24.0672
28.8368 24.042
28.8375 24.1102
28.8382 24.0295
28.8389 24.0731
28.8396 24.0303
28.8403 24.0703
28.841 24.0498
28.8417 24.0737
28.8423 24.0543
28.843 24.0721
28.8437 24.0889
28.8444 24.0715
28.8451 24.0829
28.8458 24.0734
28.8465 24.0975
28.8472 24.07
28.8479 24.102
28.8486 24.0709
28.8493 24.0714
28.85 24.0268
28.8507 24.0784
28.8514 24.0256
28.8521 24.0618
28.8528 24.0696
28.8535 24.0619
28.8542 24.0187
28.8549 24.0705
28.8556 24.114
28.8562 24.0726
28.8569 24.1011
28.8576 24.0705
28.8583 24.0201
28.859 24.0713
28.86 24.0692
28.8607 24.0085
28.8614 23.9977
28.8621 24.0982
28.8628 24.0711
28.8635 24.0496
28.8642 24.0705
28.8649 24.0974
28.8656 24.077
28.8663 24.0281
28.8669 24.0688
28.8676 24.0672
28.8683 24.0716
28.869 24.0741
28.8697 24.0124
28.8704 24.1017
28.8711 24.0103
28.8718 24.0716
28.8725 24.1036
28.8732 24.0681
28.8739 24.0613
28.8746 24.1081
28.8753 24.074
28.876 24.0032
28.8767 24.0688
28.8774 24.0703
28.8781 24.0715
28.8788 24.0728
28.8794 24.0676
28.8801 24.0523
28.8808 24.1042
28.8815 24.1021
28.8822 24.0742
28.8829 24.0729
28.8836 23.9949
28.8843 24.0136
28.885 23.9921
28.8857 23.9897
28.8864 24.0734
28.8871 24.0955
28.8878 24.0686
28.8885 24.0734
28.8892 24.0759
28.8899 23.9989
28.8906 24.0069
28.8912 24.1032
28.8919 24.0677
28.8926 23.9888
28.8933 24.0715
28.894 24.0685
28.8947 24.0599
28.8954 24.1
28.8961 24.0685
28.8968 24.0676
28.8975 24.0713
28.8982 24.0704
28.8989 24.0745
28.8996 24.0785
28.9003 24.0754
28.901 24.0699
28.9019 24.0954
28.9026 23.992
28.9033 24.0659
28.904 24.0725
28.9047 24.0151
28.9054 23.9995
28.9061 24.0591
28.9068 24.0713
28.9075 24.0722
28.9082 24.0049
28.9089 24.0289
28.9096 24.1098
28.9103 24.0504
28.911 24.0704
28.9117 24.1078
28.9124 24.1029
28.9131 24.0228
28.9138 24.0712
28.9145 24.0695
28.9152 23.9937
28.9158 24.0361
28.9165 23.9993
28.9172 24.0704
28.9179 24.0721
28.9186 24.0725
28.9193 24.007
28.92 24.0792
28.9207 24.0686
28.9214 24.0735
28.9221 24.0048
28.9228 24.0717
28.9235 23.9978
28.9242 24.07
28.9249 24.1072
28.9256 24.0197
28.9263 24.1093
28.927 24.0849
28.9277 24.0755
28.9283 24.069
28.929 24.0613
28.9297 24.0712
28.9304 24.0072
28.9311 24.063
28.9318 24.0699
28.9325 24.0041
28.9332 24.0119
28.9339 24.069
28.9346 24.0859
28.9353 24.0623
28.936 24.0756
28.9367 24.0697
28.9374 24.0713
28.9381 23.996
28.9388 24.0716
28.9395 23.9973
28.9402 24.0188
28.9408 24.0673
28.9415 24.0751
28.9422 24.0772
28.9432 24.1103
28.9439 24.0487
28.9446 24.0778
28.9453 24.089
28.946 24.0743
28.9467 24.0822
28.9474 24.0684
28.9481 24.0668
28.9488 23.9987
28.9495 24.0719
28.9502 24.0727
28.9508 24.073
28.9515 24.1103
28.9522 24.0717
28.9529 24.0005
28.9536 24.0723
28.9543 24.0718
28.955 24.0717
28.9557 24.0735
28.9564 24.0719
28.9571 24.0728
28.9578 24.0682
28.9585 24.0617
28.9592 24.0697
28.9599 24.0747
28.9606 24.0867
28.9613 24.0021
28.962 24.0799
28.9627 24.1048
28.9633 24.0688
28.964 24.0664
28.9647 24.0713
28.9654 24.0706
28.9661 24.0267
28.9668 24.1139
28.9675 24.0693
28.9682 24.0659
28.9689 24.0334
28.9696 24.0736
28.9703 24.0659
28.971 24.0708
28.9717 24.0623
28.9724 24.07
28.9731 24.0679
28.9738 24.0689
28.9745 24.0292
28.9752 24.0737
28.9758 24.0877
28.9765 24.0704
28.9772 24.0691
28.9779 24.001
28.9786 24.091
28.9793 24.0684
28.98 24.0733
28.9807 24.0017
28.9814 24.072
28.9821 24.0737
28.9828 24.0487
28.9835 24.0732
28.9842 24.0527
28.9852 24.068
28.9859 24.0436
28.9866 24.0736
28.9872 24.0797
28.9879 24.1004
28.9886 24.0724
28.9893 24.0574
28.99 24.0776
28.9907 24.1065
28.9914 24.0558
28.9921 24.0641
28.9928 24.0415
28.9935 24.0672
28.9942 24.0592
28.9949 24.071
28.9956 24.0686
28.9963 24.0715
28.997 23.9859
28.9977 24.0663
28.9984 24.0957
28.9991 24.0744
28.9997 24.0133
29.0004 23.9948
29.0011 23.9881
29.0018 24.0723
29.0025 23.9965
29.0032 24.0681
29.0039 24.0703
29.0046 24.069
29.0053 24.0683
29.006 24.0752
29.0067 24.0726
29.0074 24.0679
29.0081 24.0717
29.0088 24.0004
29.0095 24.0725
29.0102 24.0621
29.0109 24.0371
29.0116 24.1126
29.0122 24.0911
29.0129 24.106
29.0136 23.994
29.0143 24.105
29.015 24.0463
29.0157 24.0709
29.0164 24.0698
29.0171 24.0702
29.0178 24.0835
29.0185 24.07
29.0192 24.0695
29.0199 23.998
29.0206 24.0676
29.0213 24.1075
29.022 24.0277
29.0227 24.0665
29.0234 24.0507
29.0241 24.0679
29.0247 23.9929
29.0254 24.0749
29.0264 24.0821
29.0271 24.0699
29.0278 24.0114
29.0285 23.9925
29.0292 23.991
29.0299 24.0627
29.0306 24.0808
29.0313 24.0644
29.032 24.071
29.0327 24.0702
29.0334 24.0692
29.0341 24.0699
29.0348 24.0554
29.0355 23.993
29.0361 24.0127
29.0368 24.0738
29.0375 24.0663
29.0382 24.0902
29.0389 24.0601
29.0396 24.0717
29.0403 24.0742
29.041 24.0296
29.0417 23.9973
29.0424 24.0698
29.0431 24.0814
29.0438 24.0972
29.0445 24.0707
29.0452 24.0911
29.0459 24.0611
29.0466 24.0674
29.0473 24.066
29.048 24.0544
29.0486 24.0928
29.0493 24.0556
29.05 24.0733
29.0507 24.1051
29.0514 24.0722
29.0521 24.0733
29.0528 24.0578
29.0535 24.0713
29.0542 24.0682
29.0549 24.0021
29.0556 24.0702
29.0563 24.012
29.057 24.0576
29.0577 24.0868
29.0584 24.1109
29.0591 24.0771
29.0598 24.0553
29.0605 24.0701
29.0611 23.9906
29.0618 24.0751
29.0625 24.059
29.0632 24.0668
29.0639 24.0786
29.0646 24.0697
29.0653 24.0786
29.066 24.0718
29.0667 24.0107
29.0674 24.0691
29.0684 24.0696
29.0691 24.0715
29.0698 24.0718
29.0705 24.0049
29.0712 24.0719
29.0719 24.0028
29.0725 24.104
29.0732 24.0716
29.0739 24.0701
29.0746 23.9925
29.0753 24.0521
29.076 24.072
29.0767 24.0695
29.0774 23.9967
29.0781 24.0696
29.0788 24.081
29.0795 24.0674
29.0802 24.0125
29.0809 24.0698
29.0816 24.072
29.0823 24.065
29.083 24.0046
29.0837 24.072
29.0844 24.0676
29.085 24.0711
29.0857 23.9887
29.0864 24.0709
29.0871 24.0535
29.0878 24.0716
29.0885 24.0672
29.0892 23.9958
29.0899 24.079
29.0906 24.1082
29.0913 24.1055
29.092 24.0674
29.0927 23.9921
29.0934 24.0699
29.0941 24.0709
29.0948 23.9944
29.0955 24.0695
29.0962 24.1007
29.0969 24.075
29.0975 24.0946
29.0982 23.994
29.0989 24.0878
29.0996 24.06
29.1003 24.0702
29.101 24.0536
29.1017 24.0708
29.1024 24.0725
29.1031 24.0674
29.1038 24.0733
29.1045 24.0682
29.1052 24.0636
29.1059 24.0322
29.1066 24.0743
29.1073 24.0324
29.108 24.0677
29.1087 24.0968
29.1094 24.1106
29.1103 24.0737
29.111 24.0576
29.1117 24.0499
29.1124 24.0719
29.1131 24.0788
29.1138 24.0676
29.1145 24.1033
29.1152 24.0659
29.1159 24.0651
29.1166 24.1075
29.1173 24.0653
29.118 24.0697
29.1187 24.0685
29.1194 23.9897
29.1201 24.0703
29.1208 24.0751
29.1214 24.0919
29.1221 23.9933
29.1228 24.0265
29.1235 24.0725
29.1242 24.0928
29.1249 24.0711
29.1256 24.091
29.1263 24.1047
29.127 24.0677
29.1277 24.066
29.1284 24.0225
29.1291 24.0628
29.1298 24.0963
29.1305 24.0706
29.1312 24.0379
29.1319 24.0691
29.1326 24.1055
29.1333 24.0601
29.1339 24.0894
29.1346 24.0718
29.1353 24.0341
29.136 24.0669
29.1367 24.0364
29.1374 24.0669
29.1381 24.0694
29.1388 24.0726
29.1395 24.0681
29.1402 24.1088
29.1409 24.0722
29.1416 23.999
29.1423 24.0707
29.143 24.1091
29.1437 24.0847
29.1444 23.9916
29.1451 24.0204
29.1458 24.0695
29.1464 24.0651
29.1471 24.0647
29.1478 24.0678
29.1485 24.1039
29.1492 24.0048
29.1499 23.9998
29.1506 24.0711
29.1515 24.0644
29.1522 24.0338
29.1529 23.9904
29.1536 24.0938
29.1543 24.0755
29.155 24.0196
29.1557 24.1051
29.1564 24.0705
29.1571 24.0692
29.1578 24.0561
29.1585 24.104
29.1592 23.9938
29.1599 24.0701
29.1606 24.0934
29.1613 24.0639
29.162 24.0653
29.1627 24.0679
29.1633 24.0102
29.164 24.0732
29.1647 24.0668
29.1654 24.0676
29.1661 24.0408
29.1668 24.0678
29.1675 24.0367
29.1682 23.9919
29.1689 24.0667
29.1696 24.0683
29.1703 24.1
29.171 24.0717
29.1717 24.0774
29.1724 24.0971
29.1731 24.0126
29.1738 24.0008
29.1745 24.0781
29.1752 24.1114
29.1758 24.0985
29.1765 24.074
29.1772 24.0678
29.1779 24.0105
29.1786 24.0647
29.1793 24.0672
29.18 23.9947
29.1807 24.0712
29.1814 24.0686
29.1821 24.0808
29.1828 24.1054
29.1835 24.083
29.1842 24.0698
29.1849 24.0321
29.1856 24.0688
29.1863 24.0709
29.187 24.0364
29.1877 24.1076
29.1883 24.0656
29.189 24.074
29.1897 24.024
29.1904 23.9954
29.1911 24.0091
29.1918 24.0009
29.1925 24.0448
29.1935 24.0737
29.1942 24.0832
29.1949 24.0677
29.1956 24.0229
29.1963 24.1035
29.197 24.0396
29.1977 24.1045
29.1984 24.0415
29.1991 24.0626
29.1998 24.0697
29.2005 24.0676
29.2012 24.0375
29.2019 24.072
29.2025 24.0418
29.2032 23.9996
29.2039 24.0707
29.2046 24.1109
29.2053 24.068
29.206 24.0652
29.2067 24.0735
29.2074 24.0624
29.2081 24.0509
29.2088 24.0959
29.2095 24.1091
29.2102 24.0669
29.2109 24.06
29.2116 24.0679
29.2123 24.0417
29.213 24.0615
29.2137 24.0185
29.2144 23.9923
29.215 24.0697
29.2157 24.0695
29.2164 24.0146
29.2171 24.001
29.2178 24.0486
29.2185 23.999
29.2192 23.9929
29.2199 24.0623
29.2206 24.0666
29.2213 24.0583
29.222 24.0688
29.2227 24.1102
29.2234 24.0344
29.2241 24.072
29.2248 24.0286
29.2255 23.9975
29.2262 24.0684
29.2269 24.0024
29.2275 24.0829
29.2282 24.0736
29.2289 24.0711
29.2296 24.0604
29.2303 24.0694
29.231 24.067
29.2317 24.0871
29.2324 24.0689
29.2331 24.0413
29.2338 24.068
29.2345 24.0703
29.2353 24.0688
29.2359 24.0792
29.2366 24.0722
29.2373 24.069
29.238 24.0678
29.2387 24.0695
29.2394 24.0724
29.2401 24.0681
29.2408 24.0655
29.2415 24.0653
29.2422 24.072
29.2429 24.0394
29.2436 24.0664
29.2443 24.0682
29.245 24.0719
29.2457 24.0242
29.2464 24.0681
29.2471 24.1084
29.2478 24.1048
29.2484 24.0875
29.2491 23.9869
29.2498 24.071
29.2505 24.072
29.2512 24.0698
29.2519 24.0687
29.2526 24.0676
29.2533 24.0702
29.254 23.9911
29.2547 24.0701
29.2554 24.069
29.2561 24.0054
29.2568 24.0806
29.2575 23.9924
29.2582 24.072
29.2589 24.0687
29.2596 23.9913
29.2603 24.0673
29.2609 24.0731
29.2616 24.0817
29.2623 24.003
29.263 24.0694
29.2637 24.0558
29.2644 24.066
29.2651 24.0586
29.2658 24.0594
29.2665 24.0145
29.2672 24.0169
29.2679 24.068
29.2686 24.0696
29.2693 24.0607
29.27 24.0673
29.2707 24.0715
29.2714 24.1072
29.2721 24.0706
29.2728 24.1063
29.2734 24.0181
29.2741 24.069
29.2748 24.0699
29.2755 24.0679
29.2762 24.0676
29.2772 24.1008
29.2779 24.0693
29.2786 24.0696
29.2793 24.0715
29.28 24.071
29.2807 24.0045
29.2814 24.0662
29.2821 24.005
29.2828 24.0782
29.2835 24.0667
29.2842 24.0566
29.2848 24.067
29.2855 24.07
29.2862 24.003
29.2869 24.0689
29.2876 24.1026
29.2883 24.0861
29.289 23.9949
29.2897 24.0654
29.2904 23.9951
29.2911 24.068
29.2918 24.035
29.2925 24.0621
29.2932 24.0892
29.2939 24.1012
29.2946 24.0558
29.2953 24.067
29.296 24.0724
29.2967 24.0722
29.2973 24.0719
29.298 24.0742
29.2987 24.0331
29.2994 24.0753
29.3001 24.0953
29.3008 24.0693
29.3015 24.0692
29.3022 24.0921
29.3029 24.056
29.3036 24.075
29.3043 24.1049
29.305 24.0726
29.3057 24.0691
29.3064 24.0639
29.3071 24.0874
29.3078 24.1065
29.3085 24.0334
29.3092 24.0686
29.3098 24.0702
29.3105 24.1072
29.3112 24.042
29.3119 23.9907
29.3126 24.0691
29.3133 24.0736
29.314 24.0706
29.3147 24.07
29.3154 24.0851
29.3161 24.0697
29.3168 24.0518
29.3175 24.0713
29.3185 24.106
29.3192 24.0423
29.3199 24.0739
29.3206 24.0712
29.3212 24.0728
29.3219 24.0908
29.3226 24.1018
29.3233 24.0747
29.324 23.9907
29.3247 24.0718
29.3254 24.0721
29.3261 24.0712
29.3268 24.0676
29.3275 24.0686
29.3282 24.0669
29.3289 23.992
29.3296 24.0666
29.3303 24.0238
29.331 23.9945
29.3317 24.0736
29.3324 24.0637
29.3331 24.071
29.3338 24.0156
29.3344 24.067
29.3351 24.0703
29.3358 24.0016
29.3365 23.9934
29.3372 24.0721
29.3379 24.0745
29.3386 24.1022
29.3393 24.0865
29.34 24.067
29.3407 24.0672
29.3414 24.0677
29.3421 24.0255
29.3428 24.0684
29.3435 24.07
29.3442 24.0662
29.3449 24.0732
29.3456 24.069
29.3463 24.0973
29.3469 24.0569
29.3476 24.0709
29.3483 24.0741
29.349 24.0176
29.3497 24.0063
29.3504 24.0134
29.3511 24.0027
29.3518 24.0674
29.3525 24.0732
29.3532 24.0748
29.3539 24.069
29.3546 23.9928
29.3553 24.0694
29.356 24.073
29.3567 24.0855
29.3574 24.1055
29.3581 24.0113
29.3588 23.9937
29.3594 24.0981
29.3604 24.0483
29.3611 24.0638
29.3618 24.0733
29.3625 24.0714
29.3632 24.0867
29.3639 24.0712
29.3646 24.0474
29.3653 24.1088
29.366 24.0702
29.3667 24.0018
29.3674 24.0545
29.3681 24.0585
29.3688 24.0809
29.3695 24.1084
29.3702 24.1049
29.3708 24.1045
29.3715 24.0698
29.3722 24.0824
29.3729 24.0681
29.3736 24.063
29.3743 24.0053
29.375 24.0679
29.3757 24.1089
29.3764 24.0526
29.3771 24.1086
29.3778 24.069
29.3785 24.0698
29.3792 24.0976
29.3799 24.0661
29.3806 24.082
29.3813 23.9986
29.382 24.0703
29.3827 24.0692
29.3833 24.0814
29.384 24.0642
29.3847 24.0758
29.3854 24.0677
29.3861 24.0498
29.3868 23.9958
29.3875 24.0194
29.3882 24.0701
29.3889 24.0716
29.3896 24.0711
29.3903 24.0705
29.391 24.0694
29.3917 24.0683
29.3924 24.1075
29.3931 24.0975
29.3938 24.0746
29.3945 24.1074
29.3952 24.0654
29.3958 24.0722
29.3965 24.0647
29.3972 24.0773
29.3979 23.9969
29.3986 23.9941
29.3993 24.1059
29.4 24.0184
29.4007 24.0688
29.4015 24.1065
29.4023 23.9961
29.403 24.0723
29.4037 24.1085
29.4044 24.0888
29.405 24.0695
29.4057 24.0757
29.4064 24.1057
29.4071 24.0212
29.4078 24.0803
29.4085 24.0419
29.4092 24.0704
29.4099 24.0765
29.4106 24.0732
29.4113 24.0543
29.412 24.0711
29.4127 24.0718
29.4134 24.0714
29.4141 24.1009
29.4148 24.0119
29.4155 24.0959
29.4162 24.081
29.4169 24.0709
29.4175 24.0714
29.4182 24.0729
29.4189 24.0069
29.4196 24.1043
29.4203 24.1051
29.421 24.072
29.4217 24.0632
29.4224 24.0704
29.4231 24.0683
29.4238 24.1032
29.4245 23.9895
29.4252 24.104
29.4259 24.0823
29.4266 24.0697
29.4273 24.0727
29.428 24.0651
29.4287 24.0607
29.4294 24.0694
29.43 24.1054
29.4307 24.0736
29.4314 24.1016
29.4321 24.0691
29.4328 24.0692
29.4335 24.0715
29.4342 24.0183
29.4349 24.1106
29.4356 24.0176
29.4363 24.074
29.437 24.0991
29.4377 24.0223
29.4384 24.077
29.4391 24.0306
29.4398 23.991
29.4405 24.0725
29.4412 24.0681
29.4419 24.1048
29.4425 24.0613
29.4436 24.0449
29.4443 24.107
29.445 24.0309
29.4457 24.1013
29.4464 24.0694
29.4471 24.0658
29.4478 24.1141
29.4485 23.9967
29.4492 24.0752
29.4499 24.0053
29.4506 24.0984
29.4513 24.072
29.452 24.0534
29.4527 24.1001
29.4534 24.0702
29.4541 23.974
29.4548 24.1088
29.4555 24.0602
29.4561 24.1022
29.4568 24.0712
29.4575 24.1121
29.4582 24.0744
29.4589 23.9939
29.4596 24.0131
29.4603 24.0688
29.461 24.1087
29.4617 23.9926
29.4624 24.1019
29.4631 23.9939
29.4638 24.0736
29.4645 24.0674
29.4652 24.0724
29.4659 23.9881
29.4666 24.0533
29.4673 24.0721
29.468 24.0554
29.4686 24.1422
29.4693 24.1034
29.47 24.0722
29.4707 24.0149
29.4714 24.071
29.4721 24.0889
29.4728 24.0705
29.4735 24.0572
29.4742 24.0642
29.4749 24.0812
29.4756 24.0706
29.4763 24.0548
29.477 24.074
29.4777 24.0731
29.4784 24.0746
29.4791 24.0737
29.4798 23.9992
29.4805 24.0475
29.4811 24.0644
29.4818 24.0665
29.4825 23.9937
29.4832 24.0513
29.4839 24.0723
29.4846 23.9986
29.4856 24.012
29.4863 24.067
29.487 24.0748
29.4877 24.0016
29.4884 24.0814
29.4891 24.0692
29.4898 24.041
29.4905 24.0686
29.4912 24.0364
29.4919 24.0005
29.4926 24.1101
29.4933 24.1106
29.4939 24.082
29.4946 24.0711
29.4953 24.0741
29.496 24.0677
29.4967 24.0712
29.4974 23.9993
29.4981 24.0719
29.4988 24.1065
29.4995 24.0758
29.5002 24.0003
29.5009 24.0679
29.5016 24.0725
29.5023 24.0486
29.503 24.0739
29.5037 24.0729
29.5044 24.1084
29.5051 24.0439
29.5058 24.0749
29.5064 24.0049
29.5071 24.0591
29.5078 24.0753
29.5085 24.0698
29.5092 24.0044
29.5099 24.0696
29.5106 24.0724
29.5113 24.0741
29.512 24.0592
29.5127 24.1023
29.5134 24.0744
29.5141 24.0737
29.5148 24.068
29.5155 24.0335
29.5162 24.0677
29.5169 24.0944
29.5176 23.9951
29.5183 24.0373
29.5189 24.0713
29.5196 24.0745
29.5203 24.0748
29.521 24.0707
29.5217 24.0693
29.5224 23.9931
29.5231 24.0754
29.5238 23.995
29.5245 24.072
29.5252 24.0771
29.5259 24.006
29.5269 24.1077
29.5276 24.0715
29.5283 23.9985
29.529 24.0738
29.5297 24.0758
29.5304 24.0963
29.5311 24.1063
29.5317 24.0742
29.5324 24.0718
29.5331 24.0056
29.5338 24.0779
29.5345 24.1012
29.5352 23.9954
29.5359 24.0157
29.5366 24.075
29.5373 24.0754
29.538 24.0006
29.5387 24.0743
29.5394 24.0745
29.5401 24.0749
29.5408 24.0754
29.5415 24.0747
29.5422 24.0754
29.5429 24.0839
29.5436 24.0702
29.5442 24.1016
29.5449 24.067
29.5456 24.0186
29.5463 24.0735
29.547 24.0706
29.5477 24.0796
29.5484 24.0712
29.5491 23.9984
29.5498 24.0746
29.5505 24.0008
29.5512 24.0912
29.5519 24.1088
29.5526 24.0867
29.5533 24.0033
29.554 24.0338
29.5547 24.0764
29.5554 24.0527
29.5561 24.0732
29.5567 24.0748
29.5574 24.0794
29.5581 24.1345
29.5588 24.0004
29.5595 24.0737
29.5602 24.071
29.5609 24.0406
29.5616 24.0821
29.5623 24.0716
29.563 24.0763
29.5637 24.077
29.5644 23.9927
29.5651 24.0963
29.5658 24.0705
29.5665 24.0735
29.5672 23.9962
29.5679 24.0717
29.5686 24.0342
29.5693 24.0702
29.57 24.0866
29.5707 24.0748
29.5714 24.1015
29.5721 24.0043
29.5728 24.0856
29.5735 24.0717
29.5742 24.0601
29.5749 24.0133
29.5756 24.0989
29.5763 24.0753
29.577 24.0849
29.5777 24.0706
29.5784 24.0699
29.5791 24.0756
29.5798 24.0708
29.5805 24.1139
29.5811 24.0751
29.5818 24.1131
29.5825 24.0659
29.5832 24.0728
29.5839 24.0515
29.5846 24.0031
29.5853 24.0387
29.586 23.9991
29.5867 24.0724
29.5874 24.0744
29.5881 24.0769
29.5888 24.0695
29.5895 24.0719
29.5902 24.0733
29.5909 24.1094
29.5916 24.0729
29.5923 24.0724
29.593 24.1124
29.5936 24.083
29.5943 24.0732
29.595 24.0734
29.5957 24.072
29.5964 24.0397
29.5971 24.075
29.5978 24.0282
29.5985 24.0689
29.5992 24.0719
29.5999 23.9975
29.6006 24.0894
29.6013 24.075
29.602 24.0723
29.6027 24.065
29.6034 24.1007
29.6041 24.0693
29.6048 24.055
29.6055 24.0694
29.6061 24.0199
29.6068 24.0765
29.6075 24.0669
29.6082 24.0672
29.6089 24.083
29.6096 24.071
29.6106 24.0975
29.6113 24.0682
29.612 24.0883
29.6127 24.0706
29.6134 24.0739
29.6141 24.0746
29.6148 24.0361
29.6155 24.0748
29.6162 24.0778
29.6169 24.0736
29.6176 24.097
29.6183 24.0665
29.619 24.1031
29.6197 24.075
29.6203 24.0903
29.621 24.0722
29.6217 24.0769
29.6224 24.0726
29.6231 24.071
29.6238 24.0714
29.6245 24.0739
29.6252 24.0084
29.6259 24.1092
29.6266 24.0701
29.6273 24.0756
29.628 24.0799
29.6287 24.1056
29.6294 24.0106
29.6301 24.1145
29.6308 24.0794
29.6315 24.0763
29.6322 24.0781
29.6328 24.0889
29.6335 24.0028
29.6342 24.0357
29.6349 24.0053
29.6356 24.078
29.6363 24.0029
29.637 24.0007
29.6377 24.0779
29.6384 24.057
29.6391 24.1075
29.6398 24.0239
29.6405 24.0758
29.6412 24.0189
29.6419 24.0771
29.6426 24.0762
29.6433 24.0719
29.644 24.0736
29.6447 24.0641
29.6453 24.0727
29.646 24.111
29.6467 24.0684
29.6474 24.0698
29.6481 24.0732
29.6488 24.0732
29.6495 24.0739
29.6502 24.0824
29.6509 24.0152
29.6519 24.0579
29.6526 24.0763
29.6533 24.1077
29.654 24.0717
29.6547 24.0732
29.6554 24.0211
29.6561 24.0648
29.6568 24.0173
29.6575 24.0723
29.6581 24.0833
29.6588 24.0748
29.6595 24.076
29.6602 24.0781
29.6609 24.0736
29.6616 24.1033
29.6623 24.0715
29.663 24.0128
29.6637 24.0822
29.6644 24.0026
29.6651 24.0885
29.6658 24.0686
29.6665 24.0713
29.6672 24.0088
29.6679 24.0586
29.6686 23.9938
29.6693 24.1037
29.67 24.1111
29.6706 24.0097
29.6713 24.0616
29.672 24.0177
29.6727 24.1085
29.6734 24.0085
29.6741 24.0735
29.6748 24.0911
29.6755 24.1098
29.6762 24.0916
29.6769 24.0746
29.6776 24.0705
29.6783 24.0783
29.679 24.0769
29.6797 24.0691
29.6804 24.1127
29.6811 24.0958
29.6818 24.1103
29.6825 24.0389
29.6832 24.1031
29.6839 24.0304
29.6845 24.0109
29.6852 24.1009
29.6859 24.0072
29.6866 24.0734
29.6873 24.075
29.688 24.0869
29.6887 24.0022
29.6894 24.0771
29.6901 24.1104
29.6908 24.0776
29.6915 24.0753
29.6922 24.012
29.6929 24.0091
29.6939 24.1119
29.6946 24.0761
29.6953 24.0771
29.6959 24.0861
29.6966 24.0779
29.6973 24.108
29.698 24.0755
29.6987 24.0905
29.6994 24.0675
29.7001 24.0711
29.7008 24.0774
29.7015 24.0219
29.7022 24.0732
29.7029 24.0217
29.7036 24.0754
29.7043 24.0552
29.705 24.1067
29.7057 24.0713
29.7064 24.0697
29.7071 24.0732
29.7078 24.0738
29.7085 24.0752
29.7092 24.0748
29.7098 24.0684
29.7105 24.0817
29.7112 24.074
29.7119 24.0735
29.7126 24.0722
29.7133 24.0777
29.714 24.0738
29.7147 24.0682
29.7154 24.11
29.7161 24.0802
29.7168 24.0784
29.7175 24.0678
29.7182 24.0711
29.7189 24.108
29.7196 24.0899
29.7203 24.1054
29.721 24.0108
29.7217 24.0768
29.7223 24.1065
29.723 24.0787
29.7237 24.0811
29.7244 24.1117
29.7251 24.0532
29.7258 24.1076
29.7265 24.0759
29.7272 24.1058
29.7279 24.0808
29.7286 24.1112
29.7293 24.0108
29.73 24.0708
29.7307 24.0698
29.7314 24.0757
29.7321 24.0722
29.7328 24.0059
29.7335 24.1066
29.7342 24.1102
29.7348 24.114
29.7358 24.0736
29.7365 24.0837
29.7372 24.0682
29.7379 24.0707
29.7386 24.0009
29.7393 24.0967
29.74 23.9962
29.7407 24.0232
29.7414 24.1085
29.7421 24.0779
29.7428 24.071
29.7435 24.0254
29.7442 24.074
29.7449 24.0718
29.7456 24.0782
29.7462 24.0961
29.7469 23.9994
29.7476 24.0893
29.7483 24.0701
29.749 24.0242
29.7497 23.9993
29.7504 24.076
29.7511 24.1115
29.7518 24.025
29.7525 23.9981
29.7532 24.0731
29.7539 24.0737
29.7546 24.0759
29.7553 24.0756
29.756 24.076
29.7567 24.0711
29.7574 24.1048
29.7581 24.0008
29.7587 24.076
29.7594 24.0729
29.7601 24.0717
29.7608 24.1108
29.7615 24.0713
29.7622 24.0771
29.7629 24.0225
29.7636 24.0757
29.7643 24.0914
29.765 24.0761
29.7657 24.1022
29.7664 24.0023
29.7671 24.0772
29.7678 24.0751
29.7685 24.098
29.7692 23.9969
29.7699 24.0334
29.7706 24.1107
29.7713 24.0246
29.7719 24.0693
29.7726 24.0774
29.7733 24.074
29.774 24.0747
29.7747 24.0724
29.7754 24.0734
29.7761 23.9967
29.7771 24.1136
29.7778 24.0725
29.7785 24.0733
29.7792 24.0315
29.7799 24.0716
29.7806 24.0973
29.7813 24.072
29.782 24.0458
29.7827 24.0714
29.7834 24.0936
29.7841 24.0748
29.7847 24.0829
29.7854 24.0646
29.7861 24.0145
29.7868 24.0614
29.7875 24.074
29.7882 24.0972
29.7889 24.1073
29.7896 24.0621
29.7903 24.066
29.791 24.0068
29.7917 24.0099
29.7924 24.004
29.7931 24.0902
29.7938 24.0052
29.7945 24.0788
29.7952 24.1056
29.7959 24.0712
29.7966 24.0741
29.7972 24.1136
29.7979 24.1047
29.7986 23.996
29.7993 24.0771
29.8 24.1088
29.8007 24.0695
29.8014 24.0756
29.8021 24.0764
29.8028 24.073
29.8035 24.0712
29.8042 24.0789
29.8049 24.0488
29.8056 24.0716
29.8063 24.0754
29.807 24.0709
29.8077 24.0778
29.8084 24.0728
29.8091 24.0148
29.8097 24.0824
29.8104 24.077
29.8111 24.0729
29.8118 24.0917
29.8125 24.1007
29.8132 24.0836
29.8139 24.014
29.8146 24.0074
29.8153 24.056
29.816 24.1126
29.8167 24.0584
29.8174 24.1127
29.8181 24.0656
29.8191 24.0723
29.8198 24.0751
29.8205 24.073
29.8211 24.0205
29.8218 24.1074
29.8225 24.0919
29.8232 23.9987
29.8239 24.0762
29.8246 24.0751
29.8253 24.0351
29.826 24.0731
29.8267 24.0712
29.8274 24.0763
29.8281 24.0352
29.8288 24.0703
29.8295 24.0899
29.8302 24.1073
29.8309 24.0994
29.8316 24.0758
29.8323 24.0727
29.833 24.1102
29.8336 24.0757
29.8343 24.0644
29.835 24.0751
29.8357 24.0965
29.8364 24.0988
29.8371 24.0616
29.8378 24.0853
29.8385 24.0591
29.8392 24.0734
29.8399 24.0097
29.8406 24.0799
29.8413 24.074
29.842 24.0765
29.8427 24.0704
29.8434 23.9639
29.8441 23.9913
29.8448 24.0731
29.8455 24.0251
29.8461 24.0647
29.8468 24.0124
29.8475 24.0706
29.8482 24.0743
29.8489 24.1086
29.8496 24.0845
29.8503 24.0712
29.851 24.0427
29.8517 24.0685
29.8524 24.081
29.8531 24.0711
29.8538 24.0878
29.8545 24.0732
29.8552 24.1169
29.8559 23.9975
29.8566 24.1043
29.8573 24.0713
29.858 24.0721
29.8586 24.0729
29.8593 24.0733
29.8603 23.9962
29.861 24.0732
29.8617 24.0697
29.8624 24.0723
29.8631 24.0311
29.8638 24.1087
29.8645 24.074
29.8652 24.1067
29.8659 24.0911
29.8666 24.0746
29.8673 24.1141
29.868 24.0732
29.8687 24.0735
29.8694 24.0009
29.87 24.0297
29.8707 23.9992
29.8714 24.0703
29.8721 24.0712
29.8728 24.1119
29.8735 24.0649
29.8742 24.064
29.8749 24.0733
29.8756 24.0698
29.8763 24.0774
29.877 24.071
29.8777 24.0752
29.8784 24.0725
29.8791 24.014
29.8798 24.0786
29.8805 24.0819
29.8812 24.009
29.8819 24.0615
29.8826 24.0721
29.8833 24.0856
29.8839 24.0773
29.8846 24.0718
29.8853 24.0774
29.886 24.0752
29.8867 24.0036
29.8874 24.0139
29.8881 24.0725
29.8888 24.0724
29.8895 24.0751
29.8902 24.0955
29.8909 24.0722
29.8916 24.0733
29.8923 24.0788
29.893 24.1026
29.8937 24.1064
29.8944 24.1066
29.8951 24.0789
29.8958 24.0515
29.8964 24.1029
29.8971 24.1065
29.8978 24.1107
29.8985 24.0701
29.8992 24.0753
29.8999 24.0766
29.9006 24.0725
29.9013 24.1043
29.9023 24.1085
29.903 24.0797
29.9037 24.0002
29.9044 24.0327
29.9051 24.0736
29.9058 24.0987
29.9065 24.0694
29.9072 24.077
29.9078 24.0686
29.9085 24.0234
29.9092 24.0742
29.9099 24.0704
29.9106 24.0026
29.9113 23.9951
29.912 24.1075
29.9127 24.0139
29.9134 24.0729
29.9141 24.0715
29.9148 23.9561
29.9155 24.0923
29.9162 24.066
29.9169 24.0193
29.9176 23.9984
29.9183 23.9958
29.919 24.073
29.9197 24.0406
29.9203 24.007
29.921 24.0688
29.9217 24.0728
29.9224 24.0903
29.9231 24.069
29.9238 24.0735
29.9245 24.0717
29.9252 24.0714
29.9259 24.0752
29.9266 24.0771
29.9273 24.0705
29.928 24.0786
29.9287 24.0014
29.9294 24.0758
29.9301 24.0667
29.9308 24.0662
29.9315 24.0836
29.9322 24.0036
29.9328 24.0147
29.9335 24.0746
29.9342 24.106
29.9349 24.0758
29.9356 24.1034
29.9363 24.0035
29.937 24.0605
29.9377 24.0041
29.9384 24.0719
29.9391 24.0117
29.9398 24.0738
29.9405 23.9987
29.9412 24.108
29.9419 24.074
29.9426 24.0676
29.9433 24.0709
29.9443 24.0749
29.945 24.0755
29.9456 24.0748
29.9463 24.0686
29.947 24.0872
29.9477 23.9961
29.9484 24.07
29.9491 24.0013
29.9498 24.0736
29.9505 24.1056
29.9512 24.0433
29.9519 24.1071
29.9526 24.0255
29.9533 24.0995
29.954 24.0401
29.9547 24.0582
29.9554 24.0735
29.9561 24.1059
29.9568 24.1032
29.9575 24.0067
29.9581 24.0719
29.9588 24.0693
29.9595 24.0761
29.9602 24.0722
29.9609 24.0544
29.9616 24.1103
29.9623 24.0574
29.963 24.1085
29.9637 24.0746
29.9644 24.0679
29.9651 24.072
29.9658 23.9946
29.9665 24.0578
29.9672 24.0696
29.9679 24.0987
29.9686 24.0007
29.9693 24.0681
29.97 24.0711
29.9706 24.0759
29.9713 24.1092
29.972 24.0034
29.9727 24.0761
29.9734 24.0708
29.9741 24.0718
29.9748 23.996
29.9755 24.0696
29.9762 24.0729
29.9769 24.0782
29.9776 24.0091
29.9783 24.077
29.979 24.0719
29.9797 24.0742
29.9804 24.0789
29.9811 24.0625
29.9818 23.9918
29.9825 24.1076
29.9831 24.0727
29.9838 24.0696
29.9845 24.0701
29.9855 24.073
29.9862 24.046
29.9869 24.0723
29.9876 24.07
29.9883 24.0756
29.989 24.074
29.9897 24.0015
29.9904 24.0732
29.9911 24.0758
29.9918 24.069
29.9925 24.096
29.9932 24.071
29.9939 24.0039
29.9946 24.0804
29.9953 24.1071
29.9959 24.0713
29.9966 24.0744
29.9973 24.1098
29.998 24.0761
29.9987 24.0733
29.9994 24.0095
30.0001 24.0733
30.0008 24.0179
30.0015 23.9984
30.0022 24.075
30.0029 24.0664
30.0036 24.0047
30.0043 24.068
30.005 24.0712
30.0057 23.9955
30.0064 24.1099
30.0071 24.0721
30.0078 24.0729
30.0084 24.0003
30.0091 24.0707
30.0098 23.9915
30.0105 24.077
30.0112 24.0011
30.0119 24.0896
30.0126 24.0661
30.0133 24.1045
30.014 24.0777
30.0147 24.0701
30.0154 23.9963
30.0161 24.0727
30.0168 24.1025
30.0175 24.08
30.0182 24.1037
30.0189 24.0753
30.0196 24.0758
30.0203 24.1043
30.0209 24.0707
30.0216 24.0712
30.0223 24.0925
30.023 24.0713
30.0237 24.1117
30.0244 24.072
30.0251 24.0695
30.0258 24.0736
30.0265 24.0045
30.0275 24.0728
30.0282 24.074
30.0289 24.057
30.0296 24.0731
30.0303 24.0735
30.031 24.076
30.0317 24.0722
30.0324 24.0675
30.0331 24.0732
30.0338 23.994
30.0344 24.0738
30.0351 24.1054
30.0358 24.0721
30.0365 24.0029
30.0372 24.0859
30.0379 24.068
30.0386 24.0864
30.0393 23.9969
30.04 24.0469
30.0407 24.0763
30.0414 24.0725
30.0421 23.9898
30.0428 24.0399
30.0435 23.9975
30.0442 24.0707
30.0449 24.005
30.0456 24.0704
30.0463 24.0034
30.0469 24.1144
30.0476 24.0707
30.0483 24.0062
30.049 24.0713
30.0497 24.0771
30.0504 24.094
30.0511 23.9995
30.0518 24.0896
30.0525 24.0691
30.0532 24.0673
30.0539 24.1061
30.0546 24.1011
30.0553 24.073
30.056 24.0718
30.0567 24.0604
30.0574 24.0956
30.0581 24.0102
30.0587 24.0791
30.0594 24.0107
30.0601 23.9928
30.0608 24.0663
30.0615 23.9815
30.0622 24.107
30.0629 24.0089
30.0636 24.0702
30.0643 24.0565
30.065 24.0724
30.0657 24.0744
30.0664 24.067
30.0671 24.0699
30.0678 24.1049
30.0685 24.1098
30.0695 24.1062
30.0702 24.0938
30.0708 24.0668
30.0715 24.0731
30.0722 24.0742
30.0729 24.0578
30.0736 24.0734
30.0743 24.0912
30.075 24.0746
30.0757 24.0743
30.0764 24.0721
30.0771 24.0078
30.0778 24.1047
30.0785 24.0702
30.0792 24.0693
30.0799 23.9954
30.0806 24.0699
30.0813 24.0694
30.082 24.1041
30.0827 24.0549
30.0833 24.0678
30.084 24.0706
30.0847 24.067
30.0854 24.0758
30.0861 24.1048
30.0868 23.9904
30.0875 24.001
30.0882 24.0671
30.0889 24.0784
30.0896 24.0728
30.0903 24.1145
30.091 24.074
30.0917 23.9951
30.0924 23.9943
30.0931 23.9975
30.0938 24.0713
30.0945 24.0655
30.0952 24.0738
30.0958 23.9971
30.0965 24.0758
30.0972 23.9962
30.0979 24.0741
30.0986 24.0532
30.0993 24.0979
30.1 24.0544
30.1007 23.9946
30.1014 24.0683
30.1021 24.0029
30.1028 24.0719
30.1035 24.0738
30.1042 24.0032
30.1049 24.0775
30.1056 24.0077
30.1063 24.0077
30.107 23.9958
30.1077 24.0025
30.1084 24.0738
30.1091 24.0608
30.1097 24.0621
30.1107 24.0537
30.1114 24.065
30.1121 24.0713
30.1128 23.9939
30.1135 24.0509
30.1142 24.0693
30.1149 24.053
30.1156 24.0724
30.1163 24.1295
30.117 24.0702
30.1177 24.074
30.1184 24.0739
30.1191 24.0483
30.1197 24.0713
30.1204 24.073
30.1211 24.0712
30.1218 24.0754
30.1225 23.994
30.1232 24.0889
30.1239 24.0703
30.1246 24.0747
30.1253 24.0006
30.126 24.0556
30.1267 24.1098
30.1274 24.0524
30.1281 24.075
30.1288 24.0515
30.1295 24.0707
30.1302 23.9952
30.1309 24.0012
30.1316 24.0225
30.1322 23.9941
30.1329 24.0733
30.1336 24.0685
30.1343 24.0897
30.135 24.0709
30.1357 24.0701
30.1364 24.0732
30.1371 24.0702
30.1378 24.0046
30.1385 24.0716
30.1392 24.1052
30.1399 24.0898
30.1406 24.066
30.1413 24.1012
30.142 24.0708
30.1427 24.0164
30.1434 24.0713
30.1441 24.075
30.1447 24.0741
30.1454 24.072
30.1461 24.0569
30.1468 24.1144
30.1475 24.07
30.1482 23.9997
30.1489 24.0023
30.1496 24.0781
30.1503 24.0726
30.151 24.0694
30.1517 24.0828
30.1527 24.072
30.1534 24.0601
30.1541 24.0689
30.1548 24.0729
30.1555 24.073
30.1562 24.1098
30.1569 24.0716
30.1576 24.0676
30.1583 24.0731
30.1589 24.07
30.1596 24.0719
30.1603 24.1
30.161 24.0773
30.1617 24.0384
30.1624 24.0809
30.1631 24.0859
30.1638 24.0729
30.1645 24.0755
30.1652 24.0719
30.1659 24.0688
30.1666 24.0705
30.1673 24.0548
30.168 24.0027
30.1687 24.0911
30.1694 24.0003
30.1701 24.0317
30.1708 24.1142
30.1714 24.0677
30.1721 24.0725
30.1728 24.0694
30.1735 23.9979
30.1742 24.0642
30.1749 24.07
30.1756 24.0178
30.1763 24.0693
30.177 24.0606
30.1777 24.0635
30.1784 24.0712
30.1791 24.0737
30.1798 24.0352
30.1805 24.0724
30.1812 24.1125
30.1819 23.9983
30.1826 24.0736
30.1833 23.9911
30.1839 24.0412
30.1846 24.0679
30.1853 24.0356
30.186 23.9966
30.1867 24.1075
30.1874 24.0712
30.1881 24.0182
30.1888 24.069
30.1895 24.0702
30.1902 24.0673
30.1909 23.9934
30.1916 23.9928
30.1923 24.0743
30.193 24.1107
30.1939 24.0709
30.1946 24.0714
30.1953 24.0003
30.1959 24.0382
30.1966 23.998
30.1973 24.07
30.198 24.0743
30.1987 23.9952
30.1994 24.1062
30.2001 24.0749
30.2008 24.0701
30.2015 24.0725
30.2022 24.1012
30.2029 24.0695
30.2036 24.0754
30.2043 24.0704
30.205 24.0729
30.2057 24.1023
30.2064 24.102
30.2071 24.074
30.2078 24.1062
30.2084 24.0744
30.2091 24.1073
30.2098 24.0693
30.2105 24.1108
30.2112 24.0177
30.2119 24.0689
30.2126 24.0496
30.2133 24.0686
30.214 24.1081
30.2147 24.0737
30.2154 24.087
30.2161 24.0746
30.2168 24.0715
30.2175 24.072
30.2182 24.0185
30.2189 24.075
30.2196 24.0734
30.2203 24.0734
30.2209 24.0318
30.2216 24.0674
30.2223 24.069
30.223 24.1041
30.2237 24.0752
30.2244 24.0665
30.2251 24.0754
30.2258 24.0708
30.2265 24.0356
30.2272 24.0745
30.2279 24.0947
30.2286 23.9923
30.2293 24.0684
30.23 24.0004
30.2307 24.0716
30.2314 24.0707
30.2321 24.0269
30.2328 24.0703
30.2334 24.031
30.2341 24.0718
30.2348 24.0739
30.2358 24.1003
30.2365 24.0727
30.2372 24.0722
30.2379 24.0713
30.2386 24.0722
30.2393 24.07
30.24 24.074
30.2407 24.0693
30.2414 24.0741
30.2421 24.0731
30.2428 23.9909
30.2434 24.1047
30.2441 24.105
30.2448 24.0714
30.2455 24.0597
30.2462 24.0708
30.2469 24.0162
30.2476 24.0746
30.2483 24.1023
30.249 24.0006
30.2497 24.0009
30.2504 24.0752
30.2511 24.0529
30.2518 24.0734
30.2525 24.0695
30.2532 24.0727
30.2539 24.071
30.2546 23.9989
30.2553 24.0737
30.2559 24.1054
30.2566 24.0828
30.2573 24.004
30.258 24.0739
30.2587 24.0644
30.2594 24.0757
30.2601 23.9969
30.2608 24.0711
30.2615 24.071
30.2622 24.0754
30.2629 24.0701
30.2636 24.0747
30.2643 24.0047
30.265 24.0152
30.2657 23.9976
30.2664 24.0716
30.2671 24.0688
30.2678 24.075
30.2684 24.0728
30.2691 24.0719
30.2698 24.0701
30.2705 24.0828
30.2712 23.9989
30.2719 23.9914
30.2726 24.0705
30.2733 24.0996
30.274 24.0665
30.2747 24.0736
30.2754 24.0715
30.2761 24.0378
30.2768 24.0723
30.2778 24.0637
30.2785 24.0143
30.2792 24.071
30.2798 24.0729
30.2805 24.0748
30.2812 24.0443
30.2819 24.0737
30.2826 24.0358
30.2833 24.0707
30.284 24.0699
30.2847 24.0703
30.2854 24.0714
30.2861 24.0015
30.2868 24.0747
30.2875 24.1056
30.2882 24.0734
30.2889 24.0784
30.2896 24.0192
30.2903 24.0663
30.291 24.1071
30.2917 24.0472
30.2924 24.1046
30.2931 24.0679
30.2937 24.0693
30.2944 24.0726
30.2951 24.1123
30.2958 24.0684
30.2965 24.0787
30.2972 24.0712
30.2979 24.0653
30.2986 24.0232
30.2993 24.0728
30.3 24.0725
30.3007 23.9986
30.3014 24.0709
30.3021 24.0729
30.3028 24.0699
30.3035 24.0733
30.3042 24.0697
30.3049 24.106
30.3056 24.0711
30.3062 24.0695
30.3069 24.0721
30.3076 24.0685
30.3083 24.1113
30.309 24.0709
30.3097 24.072
30.3104 24.0704
30.3111 24.0833
30.3118 24.0711
30.3125 24.0715
30.3132 24.1113
30.3139 24.0276
30.3146 24.0691
30.3153 24.0944
30.316 24.0726
30.3167 24.028
30.3174 24.1085
30.3181 24.033
30.319 24.0728
30.3197 24.0851
30.3204 24.0717
30.3211 24.0133
30.3218 23.9566
30.3225 24.0718
30.3232 24.0672
30.3239 24.0715
30.3246 24.066
30.3253 24.0831
30.326 24.0674
30.3267 24.1095
30.3274 24.0048
30.3281 24.0569
30.3288 24.0684
30.3295 24.0731
30.3302 24.105
30.3308 24.101
30.3315 24.0711
30.3322 24.072
30.3329 24.0371
30.3336 23.9903
30.3343 24.0828
30.335 24.0041
30.3357 24.0138
30.3364 24.0049
30.3371 24.0747
30.3378 24.006
30.3385 24.0019
30.3392 24.0691
30.3399 24.0716
30.3406 24.0142
30.3413 24.0678
30.342 24.0702
30.3427 24.0641
30.3433 24.0707
30.344 24.0992
30.3447 24.1005
30.3454 24.1054
30.3461 24.0683
30.3468 24.0684
30.3475 24.0729
30.3482 24.0697
30.3489 24.1118
30.3496 24.0686
30.3503 24.0599
30.351 24.087
30.3517 24.0772
30.3524 24.0696
30.3531 24.073
30.3538 24.0966
30.3545 23.998
30.3552 24.072
30.3558 24.0682
30.3565 24.1079
30.3572 24.0698
30.3579 24.0658
30.3586 23.9913
30.3593 24.0962
30.36 24.0026
30.361 24.0683
30.3617 24.0699
30.3624 24.0738
30.3631 24.095
30.3638 24.1458
30.3645 24.0654
30.3652 24.0681
30.3659 24.1076
30.3666 24.0723
30.3672 24.0728
30.3679 24.0082
30.3686 24.0719
30.3693 24.0559
30.37 24.0002
30.3707 23.993
30.3714 24.0784
30.3721 24.0688
30.3728 24.0742
30.3735 24.0041
30.3742 24.0111
30.3749 24.11
30.3756 24.0711
30.3763 24.0963
30.377 23.9967
30.3777 24.0892
30.3784 24.0679
30.3791 24.0903
30.3797 24.1073
30.3804 24.0916
30.3811 24.0635
30.3818 24.073
30.3825 24.1034
30.3832 24.0152
30.3839 24.1434
30.3846 24.0709
30.3853 23.9983
30.386 24.0148
30.3867 24.1089
30.3874 24.068
30.3881 24.0655
30.3888 24.0124
30.3895 24.0691
30.3902 24.0706
30.3909 23.9937
30.3916 24.0885
30.3923 24.0707
30.393 24.0963
30.3936 24.1088
30.3943 24.0312
30.395 24.0708
30.3957 24.0701
30.3964 24.1097
30.3971 24.072
30.3978 24.1096
30.3985 24.0868
30.3992 24.1097
30.3999 24.0492
30.4006 24.068
30.4013 24.0327
30.4022 24.1065
30.4029 24.08
30.4036 24.0724
30.4043 24.0108
30.405 24.0668
30.4057 24.0781
30.4064 24.0032
30.4071 24.0729
30.4078 23.9956
30.4085 24.0747
30.4092 24.0701
30.4099 24.068
30.4106 24.0562
30.4113 24.1007
30.412 24.0901
30.4127 24.1093
30.4134 24.0756
30.4141 24.0714
30.4148 24.0367
30.4155 24.0728
30.4161 24.0735
30.4168 24.0723
30.4175 24.0711
30.4182 24.0671
30.4189 24.0696
30.4196 24.0025
30.4203 24.0847
30.421 24.0709
30.4217 24.0471
30.4224 24.1056
30.4231 24.0466
30.4238 24.069
30.4245 23.9983
30.4252 24.0737
30.4259 24.0223
30.4266 24.0742
30.4273 24.0693
30.428 24.0013
30.4286 24.0952
30.4293 23.9959
30.43 24.0888
30.4307 24.0653
30.4314 24.0726
30.4321 24.0765
30.4328 24.0752
30.4335 24.0033
30.4342 24.0708
30.4349 24.0976
30.4356 24.0696
30.4363 24.1031
30.437 24.1028
30.4377 24.107
30.4384 24.074
30.4391 24.0563
30.4398 24.0004
30.4405 24.0705
30.4411 24.0025
30.4418 24.0731
30.4425 24.0803
30.4432 23.9963
30.4442 23.9993
30.4449 24.0906
30.4456 24.0554
30.4463 24.0559
30.447 24.0734
30.4477 24.0725
30.4484 23.9938
30.4491 23.9915
30.4498 24.0707
30.4505 24.0849
30.4512 24.0569
30.4519 24.0511
30.4525 24.0708
30.4532 23.9928
30.4539 23.9597
30.4546 24.009
30.4553 24.0722
30.456 23.9941
30.4567 24.0718
30.4574 24.0259
30.4581 24.0728
30.4588 24.0735
30.4595 24.0008
30.4602 24.0744
30.4609 23.9947
30.4616 23.9944
30.4623 24.0007
30.463 24.0698
30.4637 23.9971
30.4644 24.0722
30.465 24.0726
30.4657 24.0718
30.4664 23.9815
30.4671 23.994
30.4678 24.0709
30.4685 24.001
30.4692 24.0734
30.4699 23.9923
30.4706 24.0927
30.4713 24.0712
30.472 24.0391
30.4727 24.0676
30.4734 24.0103
30.4741 24.0704
30.4748 24.0107
30.4755 24.1043
30.4762 24.0828
30.4769 23.9956
30.4775 24.0692
30.4782 23.9947
30.4789 24.0478
30.4796 24.069
30.4803 23.9957
30.481 24.0722
30.4817 23.9906
30.4824 24.0608
30.4831 24.075
30.4838 24.0706
30.4845 24.0748
30.4852 24.0008
30.4862 24.01
30.4869 23.9932
30.4876 24.0438
30.4883 24.0698
30.489 24.0726
30.4897 24.0279
30.4903 24.0641
30.491 24.0382
30.4917 24.0685
30.4924 23.987
30.4931 23.9962
30.4938 24.0726
30.4945 24.0732
30.4952 24.0075
30.4959 23.9936
30.4966 24.0578
30.4973 24.1022
30.498 24.0707
30.4987 23.9953
30.4994 24.0693
30.5001 24.0743
30.5008 24.0622
30.5015 24.0111
30.5022 23.9589
30.5028 24.0511
30.5035 24.0624
30.5042 24.0805
30.5049 24.0722
30.5056 24.0993
30.5063 24.0763
30.507 24.0689
30.5077 24.0692
30.5084 24.0627
30.5091 23.983
30.5098 24.0984
30.5105 24.0459
30.5112 24.0702
30.5119 24.0574
30.5126 24.1049
30.5133 24.0685
30.514 23.9957
30.5147 24.0481
30.5153 24.0712
30.516 24.0465
30.5167 24.0675
30.5174 24.0455
30.5181 23.9971
30.5188 23.9929
30.5195 24.072
30.5202 24.0956
30.5209 23.9951
30.5216 24.0478
30.5223 24.0715
30.523 24.0845
30.5237 23.9924
30.5244 24.074
30.5251 24.11
30.5258 24.046
30.5265 24.0639
30.5275 24.0676
30.5281 24.0837
30.5288 24.0706
30.5295 24.0819
30.5302 24.0783
30.5309 24.0857
30.5316 24.0669
30.5323 24.0685
30.533 24.0636
30.5337 24.0689
30.5344 24.0619
30.5351 24.0687
30.5358 24.0697
30.5365 24.0655
30.5372 24.0179
30.5379 24.0022
30.5386 23.9941
30.5393 24.0679
30.54 24.0085
30.5406 24.0695
30.5413 23.9937
30.542 23.9975
30.5427 24.09
30.5434 24.1039
30.5441 24.0017
30.5448 24.0083
30.5455 23.9934
30.5462 24.0737
30.5469 24.0738
30.5476 24.0112
30.5483 24.1016
30.549 24.1057
30.5497 24.0748
30.5504 24.0705
30.5511 24.0708
30.5518 24.0007
30.5525 24.0724
30.5531 24.0004
30.5538 24.0702
30.5545 24.002
30.5552 24.0391
30.5559 24.0754
30.5566 24.0333
30.5573 24.0628
30.558 24.0958
30.5587 24.0699
30.5594 24.0501
30.5601 24.0709
30.5608 24.0679
30.5615 24.0967
30.5622 23.9931
30.5629 24.0958
30.5636 24.0612
30.5643 24.0724
30.565 23.9901
30.5656 24.0067
30.5663 24.0622
30.567 23.9929
30.5677 24.0717
30.5684 24.0696
30.5694 24.019
30.5701 23.9981
30.5708 24.0584
30.5715 23.9939
30.5722 24.0709
30.5729 23.9995
30.5736 24.0889
30.5743 24.0714
30.575 24.0259
30.5756 24.0732
30.5763 23.998
30.577 24.0734
30.5777 24.0495
30.5784 23.9916
30.5791 23.9962
30.5798 24.074
30.5805 24.0082
30.5812 24.0075
30.5819 24.0718
30.5826 24.0052
30.5833 24.0756
30.584 24.0701
30.5847 24.013
30.5854 24.0736
30.5861 24.0711
30.5868 24.0605
30.5875 24.1035
30.5881 24.0699
30.5888 24.0744
30.5895 24.0808
30.5902 24.1102
30.5909 24.0754
30.5916 24.0971
30.5923 24.0014
30.593 24.0247
30.5937 24.0761
30.5944 24.0955
30.5951 24.002
30.5958 24.1074
30.5965 24.0728
30.5972 24.0489
30.5979 24.0726
30.5986 24.0709
30.5993 24.0554
30.6 24.0592
30.6006 24.0621
30.6013 24.0905
30.602 23.9934
30.6027 24.0719
30.6034 24.07
30.6041 24.0056
30.6048 24.0084
30.6055 24.102
30.6062 24.0701
30.6069 24.0044
30.6076 24.0552
30.6083 24.0725
30.609 23.9916
30.6097 23.9951
30.6106 24.0325
30.6114 24.0669
30.612 24.0748
30.6127 24.0019
30.6134 24.0506
30.6141 24.0717
30.6148 24.0277
30.6155 24.0672
30.6162 24.0374
30.6169 24.0741
30.6176 24.05
30.6183 24.0665
30.619 24.0677
30.6197 23.9987
30.6204 24.0696
30.6211 24.0701
30.6218 24.0312
30.6225 24.0686
30.6232 24.0302
30.6239 23.9964
30.6245 24.0648
30.6252 24.0689
30.6259 24.0245
30.6266 24.0033
30.6273 24.0191
30.628 24.0572
30.6287 24.0967
30.6294 24.0717
30.6301 24.0119
30.6308 24.0777
30.6315 24.0757
30.6322 24.1121
30.6329 24.0708
30.6336 24.0131
30.6343 24.0037
30.635 24.0729
30.6357 24.068
30.6364 24.0589
30.637 24.1026
30.6377 24.0563
30.6384 24.0022
30.6391 24.0559
30.6398 23.9988
30.6405 24.0953
30.6412 24.1112
30.6419 24.0514
30.6426 24.0729
30.6433 23.998
30.644 23.9936
30.6447 24.0458
30.6454 23.9979
30.6461 24.0215
30.6468 24.0692
30.6475 24.0718
30.6482 24.0664
30.6489 23.9963
30.6495 24.0052
30.6502 23.9967
30.6509 24.0729
30.6516 24.0494
30.6526 24.0673
30.6533 23.9716
30.654 23.9991
30.6547 24.0773
30.6554 24.0026
30.6561 24.0178
30.6568 24.0679
30.6575 24.0349
30.6582 24.0779
30.6589 24.071
30.6595 24.0721
30.6602 24.0733
30.6609 24.0726
30.6616 23.9951
30.6623 24.0016
30.663 24.0353
30.6637 24.0615
30.6644 24.08
30.6651 23.9919
30.6658 24.0982
30.6665 23.9918
30.6672 24.0743
30.6679 23.996
30.6686 24.0737
30.6693 23.995
30.67 24.0571
30.6707 24.0021
30.6714 24.0805
30.672 24.0714
30.6727 24.0077
30.6734 24.0727
30.6741 23.9965
30.6748 24.0727
30.6755 23.9959
30.6762 24.0731
30.6769 24.0115
30.6776 24.0743
30.6783 23.9975
30.679 24.0558
30.6797 24.0016
30.6804 24.0138
30.6811 24.0689
30.6818 24.0128
30.6825 24.0692
30.6832 24.0139
30.6839 24.0763
30.6845 24.0735
30.6852 24.001
30.6859 24.0665
30.6866 24.0708
30.6873 24.097
30.688 24.0714
30.6887 24.0141
30.6894 24.0727
30.6901 24.0758
30.6908 24.0731
30.6915 23.9961
30.6922 23.992
30.6929 24.0156
30.6936 24.0687
30.6946 24.0687
30.6953 23.9922
30.6959 24.0755
30.6966 23.9961
30.6973 24.0176
30.698 23.9972
30.6987 24.0454
30.6994 24.0686
30.7001 24.0697
30.7008 24.0731
30.7015 23.9935
30.7022 24.0731
30.7029 24.0976
30.7036 24.0715
30.7043 24.0225
30.705 24.0062
30.7057 24.0669
30.7064 24.0697
30.7071 24.0456
30.7078 24.0728
30.7084 24.0739
30.7091 24.072
30.7098 24.0152
30.7105 24.0647
30.7112 24.0156
30.7119 24.069
30.7126 24.0715
30.7133 24.002
30.714 24.0904
30.7147 24.0707
30.7154 24.0367
30.7161 24.0084
30.7168 24.1071
30.7175 24.0715
30.7182 24.0697
30.7189 24.0536
30.7196 24.0633
30.7203 23.9976
30.7209 24.0748
30.7216 23.9957
30.7223 24.0564
30.723 24.075
30.7237 23.9979
30.7244 23.9989
30.7251 24.0762
30.7258 24.0757
30.7265 24.0736
30.7272 23.9972
30.7279 23.9954
30.7286 24.0699
30.7293 24.0718
30.73 24.0021
30.7307 24.0736
30.7314 23.9989
30.7321 24.0769
30.7328 24.0667
30.7335 24.0485
30.7342 23.9957
30.7348 24.1022
30.7358 24.0737
30.7365 24.0241
30.7372 24.0734
30.7379 24.0653
30.7386 24.1069
30.7393 24.04
30.74 24.0671
30.7407 24.0698
30.7414 24.0692
30.7421 24.0177
30.7428 24.062
30.7435 24.0535
30.7442 24.0067
30.7449 23.9695
30.7456 24.0068
30.7462 23.9957
30.7469 24.1007
30.7476 24.072
30.7483 24.0691
30.749 24.0681
30.7497 24.0747
30.7504 24.0679
30.7511 24.0728
30.7518 24.0662
30.7525 24.0098
30.7532 24.004
30.7539 24.0582
30.7546 23.9956
30.7553 24.0112
30.756 24.0016
30.7567 24.0715
30.7574 24.0735
30.7581 24.0691
30.7587 24.0696
30.7594 24.082
30.7601 24.0697
30.7608 24.0705
30.7615 24.0729
30.7622 24.0682
30.7629 24.0022
30.7636 23.9938
30.7643 23.9969
30.765 24.0558
30.7657 24.0758
30.7664 24.085
30.7671 24.0683
30.7678 24.1053
30.7685 24.063
30.7692 24.0204
30.7699 23.9947
30.7706 24.0701
30.7712 24.0715
30.7719 24.1019
30.7726 24.0711
30.7733 24.0762
30.774 24.0778
30.7747 24.0662
30.7754 24.0706
30.7761 24.0716
30.7768 24.0748
30.7778 24.0536
30.7785 24.1084
30.7792 24.0468
30.7799 24.0716
30.7806 24.071
30.7813 24.0012
30.782 24.0713
30.7827 24.0727
30.7833 24.0137
30.784 24.0015
30.7847 24.097
30.7854 24.0787
30.7861 24.0101
30.7868 24.0043
30.7875 24.0674
30.7882 24.0716
30.7889 24.0072
30.7896 24.0723
30.7903 24.0611
30.791 24.0686
30.7917 23.9987
30.7924 24.0753
30.7931 23.996
30.7938 24.0744
30.7945 24.1049
30.7952 24.0805
30.7958 23.9933
30.7965 24.0806
30.7972 23.9927
30.7979 24.073
30.7986 24.0673
30.7993 24.0449
30.8 24.0634
30.8007 24.0464
30.8014 24.0708
30.8021 24.0733
30.8028 24.0731
30.8035 24.0392
30.8042 24.0661
30.8049 24.0938
30.8056 24.0739
30.8063 24.0743
30.807 24.0711
30.8077 23.9978
30.8083 23.9944
30.809 24.0475
30.8097 24.0721
30.8104 24.0727
30.8111 24.0697
30.8118 24.0729
30.8125 24.0704
30.8132 24.037
30.8139 24.1085
30.8146 24.072
30.8153 24.0781
30.816 24.0765
30.8167 23.999
30.8174 24.0967
30.8181 24.0718
30.8188 24.0032
30.8198 24.043
30.8205 24.065
30.8211 24.0747
30.8218 24.1043
30.8225 24.0735
30.8232 24.1063
30.8239 24.0211
30.8246 24.0745
30.8253 24.0727
30.826 24.0705
30.8267 24.084
30.8274 24.0725
30.8281 24.0413
30.8288 24.0721
30.8295 24.0333
30.8302 24.1063
30.8309 24.0713
30.8316 24.0728
30.8323 24.0397
30.833 24.0789
30.8336 24.0181
30.8343 24.0722
30.835 24.0532
30.8357 24.0768
30.8364 24.0789
30.8371 24.0706
30.8378 24.057
30.8385 24.0701
30.8392 24.0716
30.8399 23.9959
30.8406 23.9978
30.8413 24.072
30.842 24.0679
30.8427 24.0893
30.8434 24.0718
30.8441 24.0739
30.8448 24.0698
30.8455 24.0707
30.8461 24.076
30.8468 24.0585
30.8475 24.0783
30.8482 24.1089
30.8489 24.0688
30.8496 24.0598
30.8503 24.1045
30.851 24.0719
30.8517 24.0717
30.8524 24.0665
30.8531 24.0568
30.8538 24.0715
30.8545 24.0132
30.8552 24.0009
30.8559 24.0719
30.8566 24.0663
30.8573 24.077
30.858 24.1031
30.8586 24.0495
30.8593 24.1128
30.86 24.0787
30.861 24.0733
30.8617 24.0323
30.8624 24.0697
30.8631 24.089
30.8638 24.0736
30.8645 24.0739
30.8652 24.0028
30.8659 24.0706
30.8666 24.0732
30.8673 24.1112
30.868 24.0688
30.8687 24.0763
30.8694 23.9989
30.8701 24.0731
30.8708 24.0743
30.8714 24.0682
30.8721 24.1042
30.8728 24.0442
30.8735 23.993
30.8742 24.0718
30.8749 23.9981
30.8756 23.9986
30.8763 24.0754
30.877 24.0729
30.8777 24.0042
30.8784 24.1124
30.8791 24.0733
30.8798 24.071
30.8805 24.0767
30.8812 24.0715
30.8819 24.0715
30.8826 24.071
30.8833 24.0722
30.8839 24.0612
30.8846 24.0749
30.8853 24.0563
30.886 24.0747
30.8867 24.084
30.8874 23.9998
30.8881 24.081
30.8888 24.0738
30.8895 24.114
30.8902 24.0703
30.8909 24.0737
30.8916 24.073
30.8923 24.0437
30.893 24.111
30.8937 24.0721
30.8944 24.0748
30.8951 24.0887
30.8958 24.0722
30.8964 24.044
30.8971 24.0721
30.8978 24.072
30.8985 24.0039
30.8992 23.9932
30.8999 24.0728
30.9006 24.072
30.9013 24.0024
30.902 24.0579
30.903 24.0679
30.9037 24.0477
30.9044 23.9986
30.9051 24.0693
30.9058 24.0706
30.9065 24.0719
30.9072 24.068
30.9078 24.0757
30.9085 24.0713
30.9092 24.0212
30.9099 24.0743
30.9106 24.0971
30.9113 24.0712
30.912 24.1009
30.9127 24.0734
30.9134 24.0659
30.9141 24.0015
30.9148 24.032
30.9155 24.065
30.9162 24.0689
30.9169 24.11
30.9176 24.0574
30.9183 24.0669
30.919 24.0408
30.9197 23.9995
30.9203 24.0229
30.921 24.109
30.9217 24.071
30.9224 24.1059
30.9231 24.0848
30.9238 24.1145
30.9245 23.9907
30.9252 24.07
30.9259 24.0718
30.9266 24.1065
30.9273 24.0753
30.928 24.1053
30.9287 24.106
30.9294 24.0754
30.9301 24.0977
30.9308 24.0682
30.9315 24.0337
30.9322 23.9983
30.9328 24.0173
30.9335 24.0695
30.9342 24.0984
30.9349 24.0794
30.9356 24.0717
30.9363 24.0728
30.937 24.0877
30.9377 24.1069
30.9384 24.0918
30.9391 24.0725
30.9398 24.0972
30.9405 24.0725
30.9412 24.075
30.9419 24.0733
30.9426 24.0721
30.9433 24.0777
30.9443 24.0564
30.945 24.0712
30.9456 24.0713
30.9463 24.1036
30.947 24.0152
30.9477 24.0747
30.9484 23.9958
30.9491 24.0734
30.9498 24.0141
30.9505 24.0718
30.9512 24.0111
30.9519 24.0689
30.9526 24.055
30.9533 24.1076
30.954 24.0729
30.9547 24.1061
30.9554 24.0715
30.9561 24.0001
30.9568 24.0157
30.9575 24.0761
30.9581 24.0329
30.9588 24.0725
30.9595 24.0301
30.9602 24.0747
30.9609 24.0707
30.9616 24.0707
30.9623 24.0517
30.963 24.0718
30.9637 24.0933
30.9644 24.1062
30.9651 24.0747
30.9658 24.0699
30.9665 24.0738
30.9672 24.0689
30.9679 24.0697
30.9686 24.0644
30.9693 24.0722
30.97 24.069
30.9706 24.0258
30.9713 24.0712
30.972 24.0726
30.9727 24.0992
30.9734 24.1022
30.9741 24.0105
30.9748 24.0698
30.9755 24.0115
30.9762 24.0686
30.9769 24.0738
30.9776 24.0926
30.9783 24.0732
30.979 24.0109
30.9797 23.992
30.9804 24.075
30.9811 24.0678
30.9818 23.9986
30.9825 24.025
30.9831 24.0703
30.9838 24.098
30.9845 24.0732
30.9852 24.0708
30.9862 24.0705
30.9869 24.0725
30.9876 24.0713
30.9883 24.0828
30.989 24.0738
30.9897 24.0108
30.9904 24.0036
30.9911 24.085
30.9918 24.0756
30.9925 24.1044
30.9932 24.1109
30.9939 24.0718
30.9946 24.078
30.9953 24.0347
30.9959 23.9955
30.9966 24.0251
30.9973 24.1088
30.998 23.9936
30.9987 23.9967
30.9994 24.0678
31.0001 24.0677
31.0008 24.0527
31.0015 24.0703
31.0022 24.1067
31.0029 24.0632
31.0036 24.099
31.0043 24.1075
31.005 24.0976
31.0057 24.0626
31.0064 24.0699
31.0071 24.0682
31.0078 23.9967
31.0084 24.108
31.0091 24.0758
31.0098 24.0689
31.0105 24.0732
31.0112 23.9912
31.0119 24.0694
31.0126 24.1036
31.0133 23.9958
31.014 24.0718
31.0147 24.0816
31.0154 23.9919
31.0161 24.072
31.0168 24.0041
31.0175 24.0969
31.0182 24.1095
31.0189 24.0194
31.0196 24.0988
31.0203 24.0407
31.0209 24.0717
31.0216 24.0845
31.0223 24.0691
31.023 24.0631
31.0237 23.9977
31.0244 24.0713
31.0251 24.0723
31.0258 24.0721
31.0265 24.0714
31.0272 24.0234
31.0281 24.1072
31.0288 24.0722
31.0295 24.0708
31.0302 23.9916
31.0309 23.9956
31.0316 24.0694
31.0323 24.0738
31.033 24.0691
31.0337 24.0018
31.0344 24.0703
31.035 24.0737
31.0357 24.0789
31.0364 24.0698
31.0371 24.0683
31.0378 23.9967
31.0385 24.0814
31.0392 24.0642
31.0399 24.0851
31.0406 23.9948
31.0413 24.0464
31.042 24.108
31.0427 24.0663
31.0434 23.9969
31.0441 24.0689
31.0448 24.0735
31.0455 24.071
31.0462 24.055
31.0469 24.1068
31.0475 24.0677
31.0482 24.0584
31.0489 24.072
31.0496 24.0007
31.0503 24.1108
31.051 24.0713
31.0517 24.0693
31.0524 23.994
31.0531 24.0159
31.0538 24.0725
31.0545 24.07
31.0552 23.9964
31.0559 24.0504
31.0566 24.0729
31.0573 24.07
31.058 24.0735
31.0587 24.0687
31.0594 23.9952
31.0601 24.0696
31.0608 24.0483
31.0614 23.9985
31.0621 24.0855
31.0628 24.0751
31.0635 24.0737
31.0642 24.0729
31.0649 24.1029
31.0656 24.1097
31.0663 24.0619
31.067 24.0751
31.0677 24.0802
31.0684 24.0694
31.0693 24.1016
31.07 24.0754
31.0707 24.002
31.0714 24.0491
31.0721 24.0977
31.0728 24.0719
31.0735 24.0598
31.0742 24.0705
31.0749 24.0707
31.0756 24.1065
31.0763 24.103
31.077 24.0697
31.0777 24.0707
31.0783 24.0678
31.079 24.0754
31.0797 24.0657
31.0804 24.1017
31.0811 23.9993
31.0818 24.1114
31.0825 24.0699
31.0832 24.0701
31.0839 24.1073
31.0846 24.0489
31.0853 24.1077
31.086 24.0154
31.0867 24.0747
31.0874 24.0852
31.0881 24.0718
31.0888 24.0746
31.0895 24.0707
31.0902 24.0679
31.0908 23.9984
31.0915 24.0738
31.0922 24.0686
31.0929 24.0722
31.0936 24.0706
31.0943 24.068
31.095 24.0695
31.0957 24.0719
31.0964 24.0692
31.0971 24.0419
31.0978 24.1044
31.0985 24.0728
31.0992 23.9952
31.0999 24.0706
31.1006 24.0652
31.1013 24.0725
31.102 24.0681
31.1027 24.0706
31.1033 24.0624
31.104 24.0867
31.1047 24.1031
31.1054 24.0744
31.1061 24.0704
31.1068 24.0417
31.1075 24.068
31.1082 24.0666
31.1089 24.0704
31.1096 24.0831
31.1103 24.068
31.1113 24.0664
31.112 24.0719
31.1127 24.0695
31.1134 24.0702
31.1141 23.9933
31.1147 23.9903
31.1154 24.1076
31.1161 24.0179
31.1168 24.1052
31.1175 24.0666
31.1182 24.0769
31.1189 23.9901
31.1196 24.0012
31.1203 24.0834
31.121 23.9961
31.1217 23.9934
31.1224 24.0619
31.1231 24.0806
31.1238 24.0721
31.1245 24.0681
31.1252 23.9954
31.1259 24.0733
31.1266 23.993
31.1272 24.0226
31.1279 24.0681
31.1286 24.0703
31.1293 24.071
31.13 24.1101
31.1307 24.0681
31.1314 24.0724
31.1321 24.112
31.1328 24.1056
31.1335 24.0768
31.1342 24.0661
31.1349 24.1374
31.1356 24.072
31.1363 24.0743
31.137 24.0781
31.1377 24.0698
31.1384 24.1122
31.1391 23.9995
31.1397 24.0764
31.1404 24.0471
31.1411 24.0597
31.1418 24.1096
31.1425 24.072
31.1432 24.0718
31.1439 24.0649
31.1446 24.0735
31.1453 24.0592
31.146 24.068
31.1467 24.0675
31.1474 24.0729
31.1481 23.9889
31.1488 24.0867
31.1495 24.0053
31.1502 23.9957
31.1509 24.1099
31.1516 23.9909
31.1522 24.0711
31.1532 24.073
31.1539 24.0849
31.1546 24.1052
31.1553 24.0725
31.156 24.072
31.1567 24.1087
31.1574 24.0655
31.1581 24.0711
31.1588 24.0715
31.1595 24.032
31.1602 24.0757
31.1609 24.0729
31.1616 24.1053
31.1623 24.0764
31.163 24.1059
31.1636 24.0112
31.1643 24.0707
31.165 24.099
31.1657 23.9977
31.1664 24.0787
31.1671 24.0651
31.1678 24.0447
31.1685 23.9978
31.1692 24.0806
31.1699 24.0693
31.1706 24.0699
31.1713 24.0685
31.172 24.0869
31.1727 24.0735
31.1734 24.0726
31.1741 24.0693
31.1748 24.0284
31.1755 24.0694
31.1761 24.0322
31.1768 24.0723
31.1775 24.0673
31.1782 24.1047
31.1789 24.0704
31.1796 24.1113
31.1803 24.0222
31.181 24.0739
31.1817 24.07
31.1824 24.0599
31.1831 24.0834
31.1838 24.1061
31.1845 24.0692
31.1852 24.0614
31.1859 24.0741
31.1866 24.0104
31.1873 24.0748
31.188 24.0734
31.1886 24.0094
31.1893 24.0724
31.19 24.0697
31.1907 24.0644
31.1914 24.109
31.1921 24.0545
31.1928 24.0686
31.1935 24.0084
31.1945 24.0671
31.1952 24.0831
31.1959 24.0646
31.1966 24.0685
31.1973 24.0683
31.198 24.071
31.1987 24.074
31.1994 24.0451
31.2 23.9974
31.2007 24.0907
31.2014 24.0712
31.2021 24.0879
31.2028 24.068
31.2035 24.0979
31.2042 24.0769
31.2049 23.9922
31.2056 24.1078
31.2063 24.0692
31.207 24.0611
31.2077 24.0707
31.2084 24.069
31.2091 24.0881
31.2098 24.0714
31.2105 24.0729
31.2112 24.1078
31.2119 24.073
31.2125 23.9976
31.2132 24.0689
31.2139 24.0639
31.2146 24.013
31.2153 24.0797
31.216 24.0769
31.2167 24.072
31.2174 24.0446
31.2181 24.1054
31.2188 24.0687
31.2195 23.9988
31.2202 24.0997
31.2209 24.1139
31.2216 24.0264
31.2223 24.0714
31.223 24.0867
31.2237 24.0742
31.2244 23.9903
31.225 24.0058
31.2257 24.0354
31.2264 24.074
31.2271 24.0467
31.2278 24.0711
31.2285 24.0479
31.2292 24.069
31.2299 24.0743
31.2306 24.1049
31.2313 24.0723
31.232 24.0585
31.2327 24.0673
31.2334 24.0749
31.2341 24.0679
31.2348 24.0067
31.2355 24.0776
31.2364 24.1091
31.2371 24.0621
31.2378 24.0149
31.2385 24.0701
31.2392 24.0696
31.2399 24.0676
31.2406 24.0087
31.2413 24.0661
31.242 24.0711
31.2427 24.0717
31.2434 24.0694
31.2441 24.0701
31.2448 24.0753
31.2455 23.9982
31.2462 24.0158
31.2469 24.07
31.2476 24.0728
31.2483 24.0678
31.2489 24.0379
31.2496 24.1042
31.2503 24.0353
31.251 24.07
31.2517 24.0928
31.2524 23.995
31.2531 24.0948
31.2538 24.0686
31.2545 24.0687
31.2552 23.9918
31.2559 24.0703
31.2566 24.0741
31.2573 23.987
31.258 24.0769
31.2587 24.0696
31.2594 23.962
31.2601 24.0302
31.2608 24.0783
31.2614 24.0937
31.2621 24.073
31.2628 24.0674
31.2635 24.1084
31.2642 24.0838
31.2649 24.0717
31.2656 24.0865
31.2663 23.9943
31.267 24.0661
31.2677 24.0662
31.2684 23.9943
31.2691 24.0652
31.2698 24.0207
31.2705 24.0689
31.2712 24.0693
31.2719 24.1055
31.2726 24.0699
31.2733 24.112
31.2739 24.0775
31.2746 24.069
31.2753 24.0407
31.276 24.0674
31.2767 24.0663
31.2774 24.0363
31.2784 24.0625
31.2791 24.071
31.2798 24.076
31.2805 24.073
31.2812 24.0021
31.2819 24.0734
31.2826 23.9962
31.2833 24.0721
31.284 24.0726
31.2847 24.0403
31.2853 24.1077
31.286 24.0901
31.2867 24.0626
31.2874 24.0696
31.2881 24.0658
31.2888 24.0282
31.2895 24.0017
31.2902 24.0714
31.2909 24.0003
31.2916 23.9892
31.2923 24.0693
31.293 24.0702
31.2937 23.9919
31.2944 24.0692
31.2951 23.9899
31.2958 24.0478
31.2965 24.0799
31.2972 24.0696
31.2978 24.0714
31.2985 24.0683
31.2992 24.0736
31.2999 24.0894
31.3006 24.0713
31.3013 24.0325
31.302 24.0668
31.3027 24.0885
31.3034 23.9991
31.3041 24.11
31.3048 24.078
31.3055 24.0815
31.3062 24.0744
31.3069 24.0693
31.3076 24.0596
31.3083 24.0522
31.309 23.9942
31.3097 24.0725
31.3103 23.9929
31.311 24.0723
31.3117 24.0693
31.3124 24.0002
31.3131 24.0072
31.3138 24.0048
31.3145 24.0696
31.3152 23.9966
31.3159 24.0832
31.3166 24.0663
31.3173 24.0247
31.318 24.0679
31.3187 24.0995
31.3197 24.046
31.3203 24.0731
31.321 24.0719
31.3217 24.0638
31.3224 24.0722
31.3231 24.0687
31.3238 24.0777
31.3245 24.0716
31.3252 24.0589
31.3259 23.9983
31.3266 24.0253
31.3273 24.0756
31.328 24.0906
31.3287 24.0749
31.3294 24.0711
31.3301 24.063
31.3308 24.0809
31.3315 24.071
31.3322 24.0972
31.3328 24.0716
31.3335 24.0644
31.3342 23.9909
31.3349 24.0682
31.3356 24.0694
31.3363 24.1004
31.337 24.0028
31.3377 24.0739
31.3384 24.0575
31.3391 24.0578
31.3398 24.0598
31.3405 24.0659
31.3412 24.0756
31.3419 24.0248
31.3426 24.0694
31.3433 24.0392
31.344 24.0744
31.3447 24.071
31.3454 24.0025
31.3461 24.0716
31.3467 24.0595
31.3474 24.0837
31.3481 24.0066
31.3488 24.0852
31.3495 23.9994
31.3502 24.0708
31.3509 24.1073
31.3516 24.0749
31.3523 23.9925
31.353 24.0712
31.3537 24.0681
31.3544 24.0862
31.3551 24.0721
31.3558 24.0686
31.3565 24.0699
31.3572 24.0932
31.3579 24.0693
31.3586 24.098
31.3592 24.0722
31.3599 24.0773
31.3606 24.0946
31.3616 24.0676
31.3623 24.0692
31.363 23.9973
31.3637 24.0265
31.3644 24.0014
31.3651 24.0664
31.3658 24.0669
31.3665 24.0277
31.3672 24.0674
31.3679 24.0456
31.3686 24.0709
31.3692 24.0671
31.3699 24.1044
31.3706 24.0897
31.3713 24.0713
31.372 24.0621
31.3727 24.0045
31.3734 24.0399
31.3741 24.066
31.3748 24.0692
31.3755 24.0721
31.3762 24.041
31.3769 23.9879
31.3776 24.0316
31.3783 24.0705
31.379 24.0665
31.3797 24.0707
31.3804 24.0362
31.3811 24.0663
31.3817 24.0391
31.3824 24.0679
31.3831 24.0239
31.3838 24.0689
31.3845 24.0201
31.3852 24.0705
31.3859 24.0727
31.3866 24.065
31.3873 24.0347
31.388 24.0768
31.3887 24.0709
31.3894 23.9936
31.3901 24.0528
31.3908 23.9985
31.3915 24.0089
31.3922 23.9952
31.3929 24.0701
31.3936 24.0648
31.3942 24.0672
31.3949 24.1112
31.3956 24.0507
31.3963 24.0717
31.397 24.0732
31.3977 24.0741
31.3984 24.0174
31.3991 23.993
31.3998 23.9976
31.4005 24.0714
31.4012 24.0944
31.4019 24.0738
31.4029 24.0675
31.4036 24.0101
31.4042 24.0628
31.4049 23.9921
31.4056 23.9935
31.4063 24.0658
31.407 24.0705
31.4077 23.9911
31.4084 24.0873
31.4091 23.9969
31.4098 24.0553
31.4105 24.066
31.4112 24.0701
31.4119 24.0679
31.4126 24.008
31.4133 24.0687
31.414 24.056
31.4147 24.0608
31.4154 24.0699
31.4161 24.0644
31.4167 23.99
31.4174 24.0049
31.4181 24.0101
31.4188 24.069
31.4195 23.9927
31.4202 24.0694
31.4209 24.0153
31.4216 23.9917
31.4223 24.0705
31.423 24.0705
31.4237 24.0136
31.4244 23.9961
31.4251 24.0371
31.4258 23.991
31.4265 24.0876
31.4272 23.993
31.4279 24.0946
31.4286 24.0658
31.4292 23.9932
31.4299 24.0651
31.4306 23.9944
31.4313 24.0713
31.432 24.0356
31.4327 24.0693
31.4334 24.035
31.4341 24.0659
31.4348 24.0393
31.4355 24.1041
31.4362 24.0694
31.4369 24.0018
31.4376 24.0729
31.4383 24.0133
31.439 24.1116
31.4397 23.9998
31.4404 23.9964
31.4411 24.0712
31.4418 24.0712
31.4425 24.0642
31.4431 24.0669
31.4438 24.0695
31.4448 24.0089
31.4455 24.0724
31.4462 23.996
31.4469 23.9924
31.4476 24.0745
31.4483 23.9953
31.449 23.9964
31.4497 24.1011
31.4504 24.0149
31.4511 24.0709
31.4518 24.0726
31.4525 23.9976
31.4531 24.0954
31.4538 24.1059
31.4545 24.0703
31.4552 23.9977
31.4559 24.0398
31.4566 24.0658
31.4573 23.9923
31.458 24.0663
31.4587 24.0881
31.4594 24.068
31.4601 24.0724
31.4608 24.0686
31.4615 24.0719
31.4622 23.9886
31.4629 24.0389
31.4636 23.9966
31.4643 24.0478
31.465 23.9998
31.4656 24.0676
31.4663 23.9994
31.467 23.9931
31.4677 23.9982
31.4684 24.0393
31.4691 24.0043
31.4698 23.9989
31.4705 24.0622
31.4712 24.0115
31.4719 24.0712
31.4726 24.0094
31.4733 24.0091
31.474 24.0705
31.4747 24.0674
31.4754 23.987
31.4761 24.0725
31.4768 24.0164
31.4775 23.9972
31.4781 23.9761
31.4788 23.9965
31.4795 24.0908
31.4802 24.0716
31.4809 23.9954
31.4816 23.9974
31.4823 24.0828
31.483 24.1077
31.4837 24.0676
31.4844 24.0651
31.4851 24.0738
31.4858 24.0022
31.4868 24.0224
31.4875 23.9943
31.4881 24.0328
31.4888 23.9982
31.4895 24.0715
31.4902 24.07
31.4909 24.0746
31.4916 24.1093
31.4923 24.0739
31.493 24.0604
31.4937 24.0559
31.4944 23.996
31.4951 24.0142
31.4958 24.0704
31.4965 24.0746
31.4972 23.9576
31.4979 24.0162
31.4986 24.0004
31.4993 23.9932
31.5 23.9985
31.5006 24.0689
31.5013 24.1102
31.502 24.074
31.5027 23.9965
31.5034 24.0383
31.5041 24.0645
31.5048 24.0132
31.5055 24.0659
31.5062 24.0705
31.5069 23.9972
31.5076 24.0743
31.5083 24.065
31.509 24.0457
31.5097 24.0686
31.5104 23.9929
31.5111 24.1037
31.5118 24.0442
31.5125 24.0727
31.5132 24.0402
31.5139 24.0761
31.5145 24.0274
31.5152 24.0689
31.5159 23.9961
31.5166 24.0741
31.5173 24.0865
31.518 23.9981
31.5187 24.0718
31.5194 24.1116
31.5201 24.0442
31.5208 23.9948
31.5215 24.0721
31.5222 24.0763
31.5229 24.1001
31.5236 23.9951
31.5243 24.0757
31.525 24.1112
31.5257 24.0335
31.5264 23.9989
31.527 24.0452
31.528 24.0666
31.5287 24.0724
31.5294 23.9995
31.5301 24.0705
31.5308 24.0702
31.5315 24.0522
31.5322 24.0746
31.5329 24.0075
31.5336 24.0699
31.5343 24.048
31.535 24.0633
31.5356 24.0139
31.5363 23.9918
31.537 24.0434
31.5377 23.9974
31.5384 24.0446
31.5391 23.9975
31.5398 24.0295
31.5405 24.0048
31.5412 24.0326
31.5419 24.0739
31.5426 24.0749
31.5433 23.9974
31.544 24.035
31.5447 23.999
31.5454 23.9947
31.5461 24.0725
31.5468 24.0471
31.5475 23.9948
31.5481 24.0675
31.5488 24.0815
31.5495 23.9976
31.5502 24.0711
31.5509 24.0936
31.5516 24.0051
31.5523 24.0313
31.553 24.0652
31.5537 24.0928
31.5544 23.9946
31.5551 24.0725
31.5558 23.9667
31.5565 24.0283
31.5572 24.0038
31.5579 24.0196
31.5586 24.0624
31.5593 24.082
31.56 24.0024
31.5606 24.0171
31.5613 24.0718
31.562 23.9726
31.5627 24.0594
31.5634 24.068
31.5641 23.9973
31.5648 24.0651
31.5655 24.0756
31.5662 24.0735
31.5669 24.0126
31.5676 24.0754
31.5683 23.9949
31.569 24.0691
31.5698 24.0693
31.5705 24.0734
31.5712 24.065
31.5719 24.0499
31.5726 24.0739
31.5733 24.0705
31.574 24.0632
31.5747 24.0068
31.5754 24.0807
31.5761 24.0723
31.5768 23.9756
31.5775 24.0568
31.5782 24.0715
31.5789 24.0713
31.5796 24.0619
31.5803 24.0733
31.581 23.9765
31.5817 24.0709
31.5823 24.0705
31.583 24.0737
31.5837 24.0778
31.5844 24.0734
31.5851 23.9944
31.5858 24.0761
31.5865 24.0631
31.5872 24.0632
31.5879 24.1022
31.5886 23.9975
31.5893 24.0625
31.59 24.0645
31.5907 23.9961
31.5914 24.0739
31.5921 24.0146
31.5928 24.0692
31.5935 24.0785
31.5942 23.9954
31.5948 24.0538
31.5955 24.0729
31.5962 24.0549
31.5969 24.1096
31.5976 24.0743
31.5983 23.9955
31.599 24.0727
31.5997 24.076
31.6004 24.0079
31.6011 23.9974
31.6018 23.9612
31.6025 24.0613
31.6032 24.0062
31.6039 24.0693
31.6046 24.0568
31.6053 24.0031
31.606 24.1047
31.6067 24.0023
31.6073 24.0545
31.608 23.9965
31.6087 23.9685
31.6094 24.0699
31.6101 24.0765
31.6108 24.0684
31.6118 23.9949
31.6125 24.0749
31.6132 24.0259
31.6139 24.0684
31.6146 24.0554
31.6153 24.077
31.616 24.035
31.6167 23.9556
31.6173 24.0284
31.618 24.006
31.6187 24.0581
31.6194 24.0741
31.6201 24.0413
31.6208 24.0798
31.6215 24.0725
31.6222 24.112
31.6229 24.0702
31.6236 24.0676
31.6243 24.0467
31.625 24.0686
31.6257 24.0723
31.6264 24.0674
31.6271 24.0326
31.6278 23.9624
31.6285 24.0236
31.6292 24.0004
31.6298 24.0727
31.6305 23.9999
31.6312 24.0398
31.6319 24.0041
31.6326 23.9945
31.6333 24.0023
31.634 24.0908
31.6347 24.0711
31.6354 24.0967
31.6361 24.0757
31.6368 24.0281
31.6375 24.0737
31.6382 24.0747
31.6389 24.0749
31.6396 24.0381
31.6403 24.0056
31.641 24.0968
31.6417 24.1095
31.6423 24.0899
31.643 24.0655
31.6437 24.0772
31.6444 24.0719
31.6451 24.0366
31.6458 23.9991
31.6465 24.024
31.6472 24.0685
31.6479 24.0472
31.6486 23.9951
31.6493 24.0713
31.65 24.0639
31.6507 24.023
31.6514 24.0066
31.6521 24.0898
31.653 24.0089
31.6537 23.9586
31.6544 24.0611
31.6551 23.9959
31.6558 24.0007
31.6565 24.0779
31.6572 24.0988
31.6579 24.075
31.6586 23.999
31.6593 23.9947
31.66 24.0753
31.6607 24.0208
31.6614 24.0755
31.6621 23.9829
31.6628 23.9964
31.6635 24.0761
31.6642 24.0714
31.6648 24.0245
31.6655 24.0649
31.6662 24.0714
31.6669 24.0714
31.6676 24.0166
31.6683 23.999
31.669 23.9937
31.6697 24.0634
31.6704 23.9978
31.6711 23.9951
31.6718 24.0303
31.6725 24.0723
31.6732 24.0285
31.6739 24.0653
31.6746 24.0616
31.6753 24.0747
31.676 24.0438
31.6767 23.9972
31.6773 24.0013
31.678 24.0743
31.6787 24.0181
31.6794 24.0034
31.6801 24.0612
31.6808 24.0623
31.6815 23.9996
31.6822 24.0727
31.6829 23.9885
31.6836 23.9961
31.6843 24.0196
31.685 24.0747
31.6857 24.0458
31.6864 24.0699
31.6871 24.0385
31.6878 24.0713
31.6885 24.0342
31.6892 23.9949
31.6898 24.0689
31.6905 24.0708
31.6912 24.0273
31.6919 24.0722
31.6926 24.064
31.6933 24.1067
31.694 24.0229
31.695 24.0239
31.6957 24.0694
31.6964 24.0332
31.6971 24.0647
31.6978 23.9966
31.6985 24.0734
31.6992 24.0362
31.6999 23.9994
31.7006 24.0445
31.7013 23.9991
31.7019 24.0208
31.7026 23.9934
31.7033 23.9963
31.704 24.0639
31.7047 24.0723
31.7054 23.9931
31.7061 24.0801
31.7068 24.0628
31.7075 24.0727
31.7082 24.0056
31.7089 24.0106
31.7096 24.0107
31.7103 24.0727
31.711 24.1047
31.7117 24.0765
31.7124 24.0618
31.7131 24.0789
31.7138 24.0067
31.7144 23.9983
31.7151 24.0852
31.7158 24.0713
31.7165 24.0681
31.7172 24.0709
31.7179 24.0816
31.7186 24.0659
31.7193 24.0748
31.72 24.0713
31.7207 24.049
31.7214 23.9975
31.7221 24.0716
31.7228 24.075
31.7235 24.0307
31.7242 23.996
31.7249 24.0962
31.7256 24.0654
31.7263 23.9962
31.7269 24.0764
31.7276 23.9966
31.7283 23.9901
31.729 24.0743
31.7297 24.002
31.7304 24.0728
31.7311 24.0717
31.7318 24.0763
31.7325 24.003
31.7332 24.0264
31.7339 23.999
31.7346 24.0416
31.7353 24.06
31.736 24.0309
31.737 24.1076
31.7377 24.0722
31.7384 24.0028
31.7391 24.0793
31.7397 24.0641
31.7404 24.0647
31.7411 24.0732
31.7418 24.0414
31.7425 24.0029
31.7432 24.0567
31.7439 24.0703
31.7446 24.0187
31.7453 24.0693
31.746 24.0177
31.7467 24.0693
31.7474 24.1114
31.7481 24.0692
31.7488 24.0475
31.7495 23.9934
31.7502 24.0676
31.7509 24.0656
31.7516 24.0076
31.7523 24.07
31.753 24.07
31.7536 24.0711
31.7543 24.0556
31.755 24.0719
31.7557 24.1121
31.7564 24.0755
31.7571 24.0525
31.7578 24.0672
31.7585 24.0747
31.7592 24.0469
31.7599 23.9712
31.7606 24.047
31.7613 24.0758
31.762 24.0738
31.7627 24.0719
31.7634 24.1064
31.7641 24.0595
31.7648 24.0702
31.7655 24.0729
31.7661 24.0702
31.7668 24.0687
31.7675 24.0737
31.7682 24.0756
31.7689 24.0737
31.7696 24.0712
31.7703 24.0658
31.771 24.0699
31.7717 24.0685
31.7724 23.9922
31.7731 24.0971
31.7738 24.0688
31.7745 24.0247
31.7752 24.0007
31.7759 24.0298
31.7766 23.9972
31.7773 24.015
31.7782 24.0691
31.7789 24.065
31.7796 24.0365
31.7803 24.0732
31.781 24.0735
31.7817 24.07
31.7824 24.0582
31.7831 24.0023
31.7838 24.0734
31.7845 24.0683
31.7852 24.0714
31.7859 24.0662
31.7866 24.0685
31.7873 24.0695
31.788 23.9953
31.7886 24.0723
31.7893 23.9792
31.79 24.0724
31.7907 24.0409
31.7914 24.07
31.7921 24.0756
31.7928 24.0671
31.7935 24.0502
31.7942 24.0686
31.7949 24.0705
31.7956 23.9926
31.7963 24.0298
31.797 24.0617
31.7977 24.0667
31.7984 24.1084
31.7991 24.0249
31.7998 24.0747
31.8005 23.9966
31.8012 24.0742
31.8019 23.9924
31.8025 24.0707
31.8032 24.0744
31.8039 24.0645
31.8046 24.0265
31.8053 24.0669
31.806 24.0243
31.8067 24.0705
31.8074 24.069
31.8081 24.0617
31.8088 24.0592
31.8095 24.0696
31.8102 24.0703
31.8109 24.0657
31.8116 24.0525
31.8123 24.0014
31.813 24.0761
31.8137 24.0724
31.8144 24.0953
31.815 24.0391
31.8157 24.0024
31.8164 24.0557
31.8171 24.0747
31.8178 24.0472
31.8185 24.003
31.8192 24.0263
31.8202 24.0697
31.8209 24.0705
31.8216 24.0387
31.8223 24.0626
31.823 24.041
31.8237 24.0674
31.8244 23.9936
31.825 23.9998
31.8257 24.0865
31.8264 24.0704
31.8271 24.0678
31.8278 23.9953
31.8285 24.0356
31.8292 24.0715
31.8299 24.0417
31.8306 24.0747
31.8313 24.0704
31.832 24.1054
31.8327 24.0966
31.8334 24.0051
31.8341 23.9982
31.8348 23.9959
31.8355 23.9945
31.8362 24.0707
31.8369 24.0879
31.8375 23.9988
31.8382 24.0676
31.8389 23.9891
31.8396 24.0893
31.8403 24.0697
31.841 24.0159
31.8417 24.0712
31.8424 24.067
31.8431 23.9999
31.8438 24.0747
31.8445 23.9924
31.8452 24.0233
31.8459 24.0677
31.8466 24.0423
31.8473 24.0738
31.848 24.0323
31.8487 23.9916
31.8494 24.034
31.8501 24.0644
31.8508 24.0727
31.8514 24.061
31.8521 24.0443
31.8528 24.0039
31.8535 24.0277
31.8542 23.9947
31.8549 24.0476
31.8556 24.0916
31.8563 24.069
31.857 24.0775
31.8577 24.0164
31.8584 23.9966
31.8591 24.0786
31.8598 24.0685
31.8605 24.0755
31.8612 24.0741
31.8621 24.0619
31.8628 24.007
31.8635 24.0722
31.8642 24.0595
31.8649 24.0646
31.8656 24.0663
31.8663 24.0737
31.867 24.073
31.8677 23.9978
31.8684 23.9943
31.8691 24.0249
31.8698 24.0671
31.8705 24.0686
31.8712 23.9935
31.8719 24.0137
31.8726 23.9949
31.8733 24.0443
31.8739 24.0754
31.8746 24.0706
31.8753 24.0081
31.876 24.0803
31.8767 24.1031
31.8774 24.0685
31.8781 23.9933
31.8788 23.9915
31.8795 23.9992
31.8802 24.0721
31.8809 24.0729
31.8816 24.0256
31.8823 23.9934
31.883 24.0317
31.8837 23.9957
31.8844 24.0568
31.8851 23.9912
31.8858 24.045
31.8864 23.996
31.8871 24.0282
31.8878 24.0657
31.8885 24.02
31.8892 24.075
31.8899 24.0524
31.8906 24.0715
31.8913 24.0228
31.892 23.997
31.8927 24.0672
31.8934 24.0733
31.8941 24.0015
31.8948 24.072
31.8955 24.0681
31.8962 24.0053
31.8969 24.0141
31.8976 24.0675
31.8983 24.0188
31.899 24.0612
31.8997 24.071
31.9003 24.0595
31.901 24.0685
31.9017 24.0014
31.9024 23.9998
31.9033 24.0723
31.904 23.9971
31.9047 24.0359
31.9054 24.0612
31.9061 24.0924
31.9068 24.0699
31.9075 24.0693
31.9081 24.0737
31.9088 24.0699
31.9095 24.0684
31.9102 24.0077
31.9109 24.0691
31.9116 24.0749
31.9123 24.0667
31.913 24.0771
31.9137 24.0719
31.9144 23.9806
31.9151 24.0633
31.9158 24.0186
31.9165 24.0707
31.9172 24.0701
31.9179 24.0673
31.9186 24.0126
31.9193 24.0659
31.92 24.0364
31.9207 23.9978
31.9214 24.0342
31.922 24.0654
31.9227 24.0669
31.9234 24.0708
31.9241 24.0714
31.9248 24.0611
31.9255 24.0726
31.9262 24.0632
31.9269 24.0265
31.9276 23.9975
31.9283 24.0481
31.929 24.0697
31.9297 24.0136
31.9304 24.0027
31.9311 24.0699
31.9318 24.0051
31.9325 24.0091
31.9332 24.0025
31.9339 24.0082
31.9345 24.0541
31.9352 24.0583
31.9359 24.0653
31.9366 24.0679
31.9373 24.0529
31.938 24.0736
31.9387 24.0732
31.9394 24.0318
31.9401 24.0652
31.9408 24.029
31.9415 23.9972
31.9422 23.9883
31.9429 23.9996
31.9436 23.9907
31.9443 23.9913
31.9452 24.067
31.9459 23.9918
31.9466 23.9901
31.9473 24.0678
31.948 24.0485
31.9487 23.9883
31.9494 24.0695
31.9501 23.9914
31.9508 23.9976
31.9515 24.0696
31.9522 24.1072
31.9529 24.0668
31.9536 23.9913
31.9543 24.0532
31.955 24.0732
31.9557 24.0522
31.9564 24.0721
31.957 24.0529
31.9577 24.0707
31.9584 24.0113
31.9591 24.0732
31.9598 24.0543
31.9605 24.0089
31.9612 24.0712
31.9619 23.9944
31.9626 24.055
31.9633 24.069
31.964 24.0708
31.9647 24.0669
31.9654 24.0465
31.9661 24.0712
31.9668 24.0997
31.9675 23.9996
31.9682 24.0529
31.9689 24.0711
31.9695 24.0701
31.9702 24.0702
31.9709 24.071
31.9716 24.0695
31.9723 24.0944
31.973 24.116
31.9737 24.0692
31.9744 24.0519
31.9751 24.0939
31.9758 24.0577
31.9765 24.0002
31.9772 24.004
31.9779 24.1023
31.9786 24.072
31.9793 23.9897
31.98 24.0723
31.9807 24.0705
31.9814 23.9959
31.982 23.9974
31.9827 24.0388
31.9834 23.9959
31.9841 24.0865
31.9848 24.0732
31.9855 23.9944
31.9862 24.0273
31.9872 24.0689
31.9879 24.0732
31.9886 24.0617
31.9893 24.0313
31.99 24.0014
31.9907 24.0381
31.9914 23.9902
31.9921 24.0038
31.9928 24.0709
31.9935 24.0665
31.9942 24.0564
31.9948 24.0688
31.9955 23.9924
31.9962 24.0726
31.9969 24.0703
31.9976 24.073
31.9983 24.0711
31.999 24.0742
31.9997 24.1012