Time [d]	target cell [K]
20.0002 24.1822
20.0009 24.1346
20.0016 24.1846
20.0023 24.149
20.003 24.1525
20.0037 24.1832
20.0044 24.1859
20.0051 24.1918
20.0058 24.1826
20.0064 24.1925
20.0071 24.1866
20.0078 24.1496
20.0085 24.1827
20.0092 24.1184
20.0099 24.1848
20.0106 24.1843
20.0113 24.185
20.012 24.2191
20.0127 24.2128
20.0134 24.19
20.0141 24.1944
20.0148 24.1868
20.0155 24.1646
20.0162 24.1495
20.0169 24.1803
20.0176 24.1869
20.0183 24.1828
20.0189 24.1882
20.0196 24.1853
20.0206 24.1485
20.0213 24.147
20.022 24.1879
20.0227 24.1723
20.0234 24.1895
20.0241 24.1738
20.0248 24.1857
20.0255 24.1841
20.0262 24.1493
20.0269 24.1465
20.0275 24.1479
20.0282 24.1446
20.0289 24.1462
20.0296 24.1671
20.0303 24.1514
20.031 24.1442
20.0317 24.1463
20.0324 24.148
20.0331 24.1517
20.0338 24.1735
20.0345 24.1514
20.0352 24.1869
20.0359 24.1828
20.0366 24.1723
20.0373 24.1817
20.038 24.124
20.0387 24.1863
20.0394 24.1854
20.04 24.1475
20.0407 24.1489
20.0414 24.1876
20.0421 24.1467
20.0428 24.1522
20.0435 24.115
20.0442 24.1534
20.0449 24.1867
20.0456 24.1534
20.0463 24.1884
20.047 24.1807
20.0477 24.1518
20.0484 24.1885
20.0491 24.2195
20.0498 24.1819
20.0505 24.147
20.0512 24.1181
20.0519 24.1876
20.0525 24.1868
20.0532 24.1465
20.0539 24.1863
20.0546 24.1892
20.0553 24.1923
20.056 24.1885
20.0567 24.1729
20.0574 24.1502
20.0581 24.1472
20.0588 24.1903
20.0595 24.1737
20.0602 24.182
20.0609 24.1457
20.0616 24.1893
20.0625 24.1467
20.0632 24.185
20.0639 24.1495
20.0646 24.1454
20.0653 24.1916
20.066 24.1467
20.0667 24.1506
20.0674 24.1523
20.0681 24.1398
20.0688 24.1526
20.0695 24.1509
20.0702 24.1867
20.0709 24.1872
20.0716 24.1708
20.0723 24.186
20.073 24.1697
20.0737 24.1874
20.0744 24.1928
20.075 24.1902
20.0757 24.1723
20.0764 24.1817
20.0771 24.1784
20.0778 24.1879
20.0785 24.1779
20.0792 24.1538
20.0799 24.1434
20.0806 24.1467
20.0813 24.1947
20.082 24.1518
20.0827 24.1541
20.0834 24.1819
20.0841 24.1503
20.0848 24.188
20.0855 24.1474
20.0862 24.1547
20.0869 24.1651
20.0875 24.1536
20.0882 24.165
20.0889 24.1857
20.0896 24.1761
20.0903 24.1531
20.091 24.1475
20.0917 24.1502
20.0924 24.1399
20.0931 24.1789
20.0938 24.1735
20.0945 24.1839
20.0952 24.2046
20.0959 24.1509
20.0966 24.1616
20.0973 24.147
20.098 24.1751
20.0987 24.1436
20.0994 24.1702
20.1 24.1498
20.1007 24.1498
20.1014 24.1554
20.1021 24.1761
20.1028 24.1578
20.1035 24.1848
20.1045 24.1835
20.1052 24.1709
20.1059 24.1841
20.1066 24.1609
20.1073 24.1874
20.108 24.1882
20.1087 24.1191
20.1094 24.1603
20.11 24.1142
20.1107 24.1231
20.1114 24.1426
20.1121 24.157
20.1128 24.1527
20.1135 24.1548
20.1142 24.1839
20.1149 24.1862
20.1156 24.1903
20.1163 24.185
20.117 24.1515
20.1177 24.1531
20.1184 24.2207
20.1191 24.1826
20.1198 24.1516
20.1205 24.1624
20.1212 24.1872
20.1219 24.1669
20.1226 24.1845
20.1233 24.1662
20.124 24.148
20.1247 24.1776
20.1253 24.192
20.126 24.1945
20.1267 24.2244
20.1274 24.1499
20.1281 24.184
20.1288 24.1885
20.1295 24.1548
20.1302 24.1561
20.1309 24.1891
20.1316 24.1765
20.1323 24.1811
20.133 24.174
20.1337 24.156
20.1344 24.1646
20.1351 24.1862
20.1358 24.1601
20.1365 24.1897
20.1372 24.1486
20.1378 24.1877
20.1385 24.172
20.1392 24.187
20.1399 24.1496
20.1406 24.1537
20.1413 24.2039
20.142 24.2194
20.1427 24.1891
20.1434 24.1871
20.1441 24.1495
20.1448 24.1934
20.1458 24.1485
20.1465 24.1298
20.1472 24.1859
20.1478 24.1732
20.1485 24.1144
20.1492 24.1865
20.1499 24.1454
20.1506 24.2149
20.1513 24.1871
20.152 24.1742
20.1527 24.1868
20.1534 24.1775
20.1541 24.1898
20.1548 24.1814
20.1555 24.2226
20.1562 24.1756
20.1569 24.1901
20.1576 24.1921
20.1583 24.1523
20.159 24.1515
20.1597 24.1848
20.1603 24.1714
20.161 24.1506
20.1617 24.1728
20.1624 24.1472
20.1631 24.1507
20.1638 24.1486
20.1645 24.1691
20.1652 24.1882
20.1659 24.1919
20.1666 24.1496
20.1673 24.1616
20.168 24.1508
20.1687 24.1907
20.1694 24.1865
20.1701 24.1878
20.1708 24.1848
20.1715 24.1732
20.1722 24.1898
20.1728 24.1477
20.1735 24.1882
20.1742 24.1514
20.1749 24.1509
20.1756 24.1618
20.1763 24.1494
20.177 24.1778
20.1777 24.1529
20.1784 24.1552
20.1791 24.1886
20.1798 24.1787
20.1805 24.1496
20.1812 24.159
20.1819 24.1827
20.1826 24.1564
20.1833 24.1544
20.184 24.1631
20.1847 24.1095
20.1853 24.126
20.186 24.2242
20.1867 24.1928
20.1877 24.1524
20.1884 24.1498
20.1891 24.1588
20.1898 24.1495
20.1905 24.1602
20.1912 24.1863
20.1919 24.1784
20.1926 24.1482
20.1933 24.1461
20.194 24.1869
20.1947 24.1657
20.1953 24.177
20.196 24.1877
20.1967 24.188
20.1974 24.157
20.1981 24.1868
20.1988 24.1483
20.1995 24.1539
20.2002 24.1886
20.2009 24.1847
20.2016 24.1844
20.2023 24.1896
20.203 24.1971
20.2037 24.1921
20.2044 24.1741
20.2051 24.1737
20.2058 24.1839
20.2065 24.185
20.2072 24.1963
20.2078 24.186
20.2085 24.1581
20.2092 24.1521
20.2099 24.1506
20.2106 24.1725
20.2113 24.1538
20.212 24.1862
20.2127 24.1879
20.2134 24.1861
20.2141 24.1759
20.2148 24.1542
20.2155 24.1881
20.2162 24.15
20.2169 24.192
20.2176 24.1478
20.2183 24.1501
20.219 24.1474
20.2197 24.146
20.2203 24.1833
20.221 24.1827
20.2217 24.148
20.2224 24.1797
20.2231 24.1886
20.2238 24.1827
20.2245 24.1926
20.2252 24.2168
20.2259 24.15
20.2266 24.1848
20.2273 24.1477
20.228 24.1914
20.2287 24.1552
20.2297 24.1467
20.2303 24.162
20.231 24.1469
20.2317 24.2131
20.2324 24.1849
20.2331 24.1855
20.2338 24.147
20.2345 24.1958
20.2352 24.1856
20.2359 24.1819
20.2366 24.1805
20.2373 24.1733
20.238 24.1956
20.2387 24.1805
20.2394 24.2134
20.2401 24.1513
20.2408 24.1491
20.2415 24.1885
20.2422 24.1459
20.2428 24.1173
20.2435 24.181
20.2442 24.1535
20.2449 24.1857
20.2456 24.1875
20.2463 24.1857
20.247 24.1488
20.2477 24.1514
20.2484 24.1515
20.2491 24.1665
20.2498 24.1479
20.2505 24.1872
20.2512 24.1536
20.2519 24.186
20.2526 24.1516
20.2533 24.1623
20.254 24.1894
20.2547 24.1402
20.2553 24.1882
20.256 24.186
20.2567 24.1883
20.2574 24.1636
20.2581 24.1913
20.2588 24.1991
20.2595 24.1772
20.2602 24.1498
20.2609 24.1842
20.2616 24.1544
20.2623 24.1642
20.263 24.1878
20.2637 24.1869
20.2644 24.1517
20.2651 24.2198
20.2658 24.1521
20.2665 24.1488
20.2672 24.1546
20.2678 24.1722
20.2685 24.1578
20.2692 24.1555
20.2699 24.1575
20.2709 24.1556
20.2716 24.1498
20.2723 24.1513
20.273 24.1531
20.2737 24.1897
20.2744 24.1653
20.2751 24.1871
20.2758 24.159
20.2764 24.1531
20.2771 24.1814
20.2778 24.1478
20.2785 24.2221
20.2792 24.1474
20.2799 24.1523
20.2806 24.1752
20.2813 24.1508
20.282 24.157
20.2827 24.1531
20.2834 24.1912
20.2841 24.1544
20.2848 24.1773
20.2855 24.1854
20.2862 24.1797
20.2869 24.186
20.2876 24.1631
20.2883 24.1477
20.2889 24.145
20.2896 24.1813
20.2903 24.1502
20.291 24.1877
20.2917 24.1846
20.2924 24.1545
20.2931 24.1422
20.2938 24.1469
20.2945 24.1622
20.2952 24.1861
20.2959 24.1589
20.2966 24.1488
20.2973 24.1932
20.298 24.1898
20.2987 24.1688
20.2994 24.1488
20.3001 24.189
20.3008 24.1908
20.3014 24.1881
20.3021 24.189
20.3028 24.1932
20.3035 24.191
20.3042 24.1505
20.3049 24.1865
20.3056 24.1907
20.3063 24.1488
20.307 24.1863
20.3077 24.1487
20.3084 24.1875
20.3091 24.1467
20.3098 24.1558
20.3105 24.1826
20.3112 24.1812
20.3119 24.1512
20.3128 24.1854
20.3135 24.1492
20.3142 24.1877
20.3149 24.1938
20.3156 24.152
20.3163 24.1688
20.317 24.1929
20.3177 24.1827
20.3184 24.1524
20.3191 24.1461
20.3198 24.1869
20.3205 24.1566
20.3212 24.1833
20.3219 24.1617
20.3226 24.1455
20.3233 24.1597
20.3239 24.1572
20.3246 24.164
20.3253 24.1867
20.326 24.1827
20.3267 24.1477
20.3274 24.1826
20.3281 24.2097
20.3288 24.1502
20.3295 24.1868
20.3302 24.1523
20.3309 24.1598
20.3316 24.1495
20.3323 24.1868
20.333 24.1878
20.3337 24.2163
20.3344 24.1939
20.3351 24.1442
20.3358 24.1502
20.3364 24.1681
20.3371 24.1146
20.3378 24.1698
20.3385 24.1809
20.3392 24.1715
20.3399 24.1856
20.3406 24.1792
20.3413 24.1902
20.342 24.1681
20.3427 24.1489
20.3434 24.191
20.3441 24.1866
20.3448 24.1843
20.3455 24.1524
20.3462 24.1459
20.3469 24.185
20.3476 24.1749
20.3483 24.1842
20.3489 24.1907
20.3496 24.1903
20.3503 24.1288
20.351 24.152
20.3517 24.1857
20.3524 24.1905
20.3531 24.1569
20.3538 24.1541
20.3548 24.19
20.3555 24.1459
20.3562 24.1802
20.3569 24.1911
20.3576 24.1565
20.3583 24.1214
20.3589 24.1846
20.3596 24.188
20.3603 24.1507
20.361 24.1859
20.3617 24.1505
20.3624 24.1892
20.3631 24.1843
20.3638 24.1631
20.3645 24.1864
20.3652 24.1793
20.3659 24.1864
20.3666 24.188
20.3673 24.1858
20.368 24.1787
20.3687 24.1543
20.3694 24.1873
20.3701 24.1829
20.3708 24.1842
20.3714 24.1807
20.3721 24.146
20.3728 24.2259
20.3735 24.1797
20.3742 24.1777
20.3749 24.1181
20.3756 24.1855
20.3763 24.1557
20.377 24.1535
20.3777 24.1459
20.3784 24.1678
20.3791 24.1516
20.3798 24.149
20.3805 24.1831
20.3812 24.1874
20.3819 24.2245
20.3826 24.2125
20.3833 24.2652
20.3839 24.2384
20.3846 24.2698
20.3853 24.3389
20.386 24.2996
20.3867 24.2825
20.3874 24.3029
20.3881 24.3068
20.3888 24.342
20.3895 24.3301
20.3902 24.3813
20.3909 24.3574
20.3916 24.3439
20.3923 24.4188
20.393 24.3778
20.3937 24.3831
20.3944 24.415
20.3951 24.431
20.396 24.4366
20.3967 28.0717
20.3974 30.0812
20.3981 35.7326
20.3988 32.4507
20.3995 36.8627
20.4002 32.0036
20.4009 32.973
20.4016 33.1968
20.4023 38.1376
20.403 33.1191
20.4037 32.8927
20.4044 38.1931
20.4051 38.3456
20.4058 35.1303
20.4065 38.9017
20.4072 39.9619
20.4078 38.5841
20.4085 34.558
20.4092 35.9392
20.4099 35.0212
20.4106 36.6931
20.4113 37.7373
20.412 37.8881
20.4127 40.9447
20.4134 36.308
20.4141 35.7768
20.4148 41.3489
20.4155 38.3068
20.4162 38.1901
20.4169 38.0848
20.4176 38.6738
20.4183 41.7304
20.419 38.5355
20.4197 39.9634
20.4203 40.6501
20.421 40.3371
20.4217 39.7489
20.4224 43.0195
20.4231 41.0021
20.4238 38.6686
20.4245 39.6653
20.4252 42.6975
20.4259 42.3436
20.4266 43.6066
20.4273 45.5119
20.428 44.2948
20.4287 43.9561
20.4294 42.1884
20.4301 41.622
20.4308 46.2413
20.4315 45.6735
20.4322 44.6078
20.4328 46.008
20.4335 43.726
20.4342 45.4328
20.4349 44.9037
20.4356 47.3475
20.4363 48.6052
20.437 46.825
20.438 47.2812
20.4387 46.8037
20.4394 47.6082
20.4401 49.4123
20.4408 49.5451
20.4414 49.1682
20.4421 50.5878
20.4428 46.343
20.4435 47.2715
20.4442 50.5749
20.4449 48.1919
20.4456 50.5842
20.4463 48.6462
20.447 49.8207
20.4477 48.8728
20.4484 50.1452
20.4491 48.2933
20.4498 47.5521
20.4505 49.8957
20.4512 49.4373
20.4519 49.0054
20.4526 51.6639
20.4533 52.271
20.4539 52.9797
20.4546 53.7677
20.4553 54.6107
20.456 55.7392
20.4567 60.8933
20.4574 63.132
20.4581 63.6958
20.4588 66.0622
20.4595 67.9404
20.4602 69.9229
20.4609 71.4059
20.4616 72.8239
20.4623 74.1782
20.463 75.5155
20.4637 76.822
20.4644 78.0998
20.4651 79.3739
20.4658 80.5871
20.4664 81.8276
20.4671 83.0302
20.4678 84.2168
20.4685 85.4108
20.4692 86.5724
20.4699 87.7301
20.4706 88.8631
20.4713 89.9903
20.472 91.1226
20.4727 92.2057
20.4734 93.2856
20.4741 94.3883
20.4748 95.4702
20.4755 96.5416
20.4762 97.594
20.4769 98.6492
20.4776 99.6742
20.4783 100.724
20.4789 102.173
20.4799 103.184
20.4806 104.213
20.4813 105.221
20.482 106.241
20.4827 107.228
20.4834 108.226
20.4841 106.531
20.4848 108.906
20.4855 110.221
20.4862 111.424
20.4869 112.533
20.4876 113.649
20.4883 114.738
20.489 115.772
20.4897 116.84
20.4903 117.829
20.491 118.819
20.4917 119.756
20.4924 120.698
20.4931 121.599
20.4938 122.482
20.4945 123.393
20.4952 124.298
20.4959 125.181
20.4966 126.064
20.4973 126.935
20.498 127.822
20.4987 128.726
20.4994 129.622
20.5001 130.533
20.5008 131.433
20.5015 132.397
20.5022 133.299
20.5028 134.249
20.5035 135.159
20.5042 136.075
20.5049 136.975
20.5056 137.879
20.5063 138.772
20.507 139.69
20.5077 140.581
20.5084 141.489
20.5091 142.412
20.5098 143.305
20.5105 144.235
20.5112 145.14
20.5119 146.036
20.5126 146.961
20.5133 147.879
20.514 148.805
20.5147 149.737
20.5153 150.628
20.516 151.508
20.5167 152.407
20.5174 153.276
20.5181 154.172
20.5188 155.059
20.5195 155.966
20.5202 156.882
20.5212 158.131
20.5219 159.031
20.5226 159.922
20.5233 160.818
20.524 161.699
20.5247 162.569
20.5253 163.412
20.526 164.258
20.5267 165.114
20.5274 165.98
20.5281 166.797
20.5288 167.654
20.5295 168.489
20.5302 169.321
20.5309 170.1
20.5316 170.915
20.5323 171.662
20.533 172.433
20.5337 173.188
20.5344 173.922
20.5351 174.659
20.5358 175.337
20.5365 176.023
20.5372 176.706
20.5378 177.335
20.5385 177.95
20.5392 178.575
20.5399 179.143
20.5406 179.705
20.5413 180.267
20.542 180.819
20.5427 181.372
20.5434 181.947
20.5441 182.498
20.5448 183.051
20.5455 183.557
20.5462 184.092
20.5469 184.628
20.5476 185.154
20.5483 185.684
20.549 186.203
20.5497 186.74
20.5503 187.288
20.551 187.799
20.5517 188.301
20.5524 188.824
20.5531 189.321
20.5538 189.847
20.5545 190.357
20.5552 190.872
20.5559 191.384
20.5566 191.908
20.5573 192.423
20.558 192.915
20.5587 193.434
20.5594 193.947
20.5601 194.461
20.5608 194.988
20.5615 195.505
20.5622 196.038
20.5631 196.776
20.5638 197.272
20.5645 197.817
20.5652 198.339
20.5659 198.846
20.5666 199.35
20.5673 199.861
20.568 200.376
20.5687 200.89
20.5694 201.377
20.5701 201.886
20.5708 202.4
20.5715 202.883
20.5722 203.399
20.5729 203.898
20.5736 204.377
20.5742 204.881
20.5749 205.372
20.5756 205.86
20.5763 206.366
20.577 206.838
20.5777 207.334
20.5784 207.796
20.5791 208.28
20.5798 208.779
20.5805 209.253
20.5812 209.757
20.5819 210.225
20.5826 210.714
20.5833 211.184
20.584 211.665
20.5847 212.144
20.5854 212.615
20.5861 213.078
20.5867 213.542
20.5874 214.024
20.5881 214.467
20.5888 214.948
20.5895 215.4
20.5902 215.863
20.5909 216.322
20.5916 216.788
20.5923 217.242
20.593 217.688
20.5937 218.136
20.5944 218.613
20.5951 219.082
20.5958 219.523
20.5965 219.976
20.5972 220.4
20.5979 220.839
20.5986 221.277
20.5992 221.683
20.5999 222.102
20.6006 222.522
20.6013 222.952
20.602 223.385
20.6027 223.8
20.6034 224.213
20.6041 224.75
20.605 225.164
20.6057 225.571
20.6064 225.987
20.6071 226.385
20.6078 226.81
20.6085 227.209
20.6092 227.605
20.6098 228.036
20.6105 228.419
20.6112 228.794
20.6119 229.229
20.6126 229.603
20.6133 230.016
20.614 230.41
20.6147 230.8
20.6154 231.187
20.6161 231.567
20.6168 231.956
20.6175 232.356
20.6182 232.732
20.6189 233.094
20.6196 233.473
20.6203 233.854
20.621 234.223
20.6217 234.569
20.6223 234.942
20.623 235.321
20.6237 235.703
20.6244 236.022
20.6251 236.408
20.6258 236.764
20.6265 237.094
20.6272 237.458
20.6279 237.831
20.6286 238.181
20.6293 238.537
20.63 238.879
20.6307 239.22
20.6314 239.574
20.6321 239.924
20.6328 240.273
20.6335 240.61
20.6342 240.957
20.6349 241.313
20.6356 241.63
20.6363 241.972
20.6369 242.319
20.6376 242.655
20.6383 242.97
20.639 243.315
20.6397 243.667
20.6404 243.973
20.6411 244.3
20.6418 244.605
20.6425 244.932
20.6432 245.335
20.6439 245.707
20.6446 246.029
20.6453 246.379
20.6461 246.765
20.6468 247.086
20.6475 247.413
20.6482 247.74
20.6489 248.026
20.6495 248.352
20.6502 248.678
20.6509 248.988
20.6516 249.279
20.6523 249.565
20.653 249.876
20.6537 250.196
20.6544 250.474
20.6551 250.763
20.6558 251.068
20.6565 251.362
20.6572 251.642
20.6579 251.924
20.6586 252.217
20.6593 252.502
20.66 252.793
20.6607 253.065
20.6614 253.341
20.662 253.623
20.6627 253.904
20.6634 254.166
20.6641 254.445
20.6648 254.723
20.6655 254.992
20.6662 255.246
20.6669 255.532
20.6676 255.784
20.6683 256.048
20.669 256.331
20.6697 256.57
20.6704 256.85
20.6711 257.114
20.6718 257.351
20.6725 257.606
20.6732 257.85
20.6739 258.114
20.6745 258.369
20.6752 258.606
20.6759 258.86
20.6766 259.099
20.6773 259.352
20.678 259.572
20.6787 259.825
20.6794 260.06
20.6801 260.307
20.6808 260.534
20.6815 260.772
20.6822 261.008
20.6829 261.242
20.6836 261.46
20.6843 261.68
20.685 261.932
20.6857 262.137
20.6864 262.376
20.687 262.606
20.6878 262.869
20.6885 263.064
20.6892 263.314
20.6899 263.502
20.6906 263.718
20.6913 263.939
20.692 264.139
20.6927 264.372
20.6934 264.571
20.6941 264.807
20.6948 265.013
20.6955 265.195
20.6962 265.412
20.6969 265.613
20.6976 265.83
20.6983 266.029
20.699 266.203
20.6997 266.428
20.7003 266.625
20.701 266.833
20.7017 267.012
20.7024 267.18
20.7031 267.407
20.7038 267.599
20.7045 267.808
20.7052 267.981
20.7059 268.151
20.7066 268.365
20.7073 268.523
20.708 268.727
20.7087 268.901
20.7094 269.075
20.7101 269.259
20.7108 269.439
20.7115 269.619
20.7122 269.809
20.7128 269.968
20.7135 270.15
20.7142 270.339
20.7149 270.505
20.7156 270.661
20.7163 270.846
20.717 271.005
20.7177 271.17
20.7184 271.345
20.7191 271.485
20.7198 271.658
20.7205 271.829
20.7212 271.969
20.7219 272.124
20.7226 272.288
20.7233 272.465
20.724 272.614
20.7247 272.765
20.7253 272.93
20.726 273.095
20.7267 273.236
20.7274 273.403
20.7281 273.536
20.7288 273.678
20.7296 273.859
20.7303 274.005
20.731 274.123
20.7317 274.284
20.7324 274.426
20.7331 274.573
20.7338 274.725
20.7345 274.862
20.7352 275.011
20.7359 275.138
20.7366 275.251
20.7373 275.408
20.738 275.545
20.7387 275.669
20.7394 275.812
20.74 275.959
20.7407 276.072
20.7414 276.196
20.7421 276.306
20.7428 276.469
20.7435 276.579
20.7442 276.708
20.7449 276.837
20.7456 276.968
20.7463 277.096
20.747 277.221
20.7477 277.331
20.7484 277.478
20.7491 277.593
20.7498 277.694
20.7505 277.823
20.7512 277.938
20.7519 278.062
20.7525 278.173
20.7532 278.288
20.7539 278.416
20.7546 278.521
20.7553 278.637
20.756 278.762
20.7567 278.866
20.7574 278.978
20.7581 279.077
20.7588 279.183
20.7595 279.302
20.7602 279.417
20.7609 279.521
20.7616 279.611
20.7623 279.713
20.763 279.818
20.7637 279.951
20.7644 280.043
20.765 280.141
20.7657 280.245
20.7664 280.337
20.7671 280.446
20.7678 280.553
20.7685 280.649
20.7692 280.738
20.7699 280.825
20.7706 280.945
20.7714 281.068
20.7721 281.144
20.7728 281.247
20.7735 281.342
20.7742 281.442
20.7749 281.531
20.7756 281.626
20.7763 281.709
20.777 281.79
20.7777 281.876
20.7784 281.983
20.7791 282.075
20.7798 282.162
20.7805 282.24
20.7812 282.318
20.7819 282.403
20.7826 282.509
20.7833 282.601
20.7839 282.679
20.7846 282.749
20.7853 282.835
20.786 282.917
20.7867 283.009
20.7874 283.079
20.7881 283.183
20.7888 283.27
20.7895 283.338
20.7902 283.412
20.7909 283.504
20.7916 283.587
20.7923 283.667
20.793 283.724
20.7937 283.814
20.7944 283.888
20.7951 283.95
20.7958 284.041
20.7964 284.125
20.7971 284.18
20.7978 284.26
20.7985 284.329
20.7992 284.399
20.7999 284.494
20.8006 284.551
20.8013 284.618
20.802 284.695
20.8027 284.764
20.8034 284.824
20.8041 284.886
20.8048 284.952
20.8055 285.053
20.8062 285.101
20.8069 285.168
20.8076 285.227
20.8083 285.299
20.8089 285.341
20.8096 285.415
20.8103 285.515
20.811 285.576
20.8117 285.629
20.8124 285.689
20.8133 285.769
20.814 285.812
20.8147 285.878
20.8154 285.943
20.8161 286.016
20.8167 286.07
20.8174 286.129
20.8181 286.2
20.8188 286.226
20.8195 286.306
20.8202 286.353
20.8209 286.417
20.8216 286.471
20.8223 286.548
20.823 286.586
20.8237 286.663
20.8244 286.697
20.8251 286.747
20.8258 286.805
20.8265 286.872
20.8272 286.91
20.8279 286.967
20.8286 287.038
20.8293 287.097
20.83 287.137
20.8306 287.19
20.8313 287.243
20.832 287.293
20.8327 287.342
20.8334 287.373
20.8341 287.426
20.8348 287.466
20.8355 287.542
20.8362 287.577
20.8369 287.628
20.8376 287.682
20.8383 287.722
20.839 287.778
20.8397 287.83
20.8404 287.866
20.8411 287.903
20.8418 287.959
20.8425 287.996
20.8431 288.05
20.8438 288.093
20.8445 288.127
20.8452 288.197
20.8459 288.238
20.8466 288.273
20.8473 288.329
20.848 288.358
20.8487 288.402
20.8494 288.437
20.8501 288.473
20.8508 288.546
20.8515 288.568
20.8522 288.606
20.8529 288.676
20.8536 288.696
20.8544 288.734
20.8551 288.787
20.8558 288.825
20.8565 288.85
20.8572 288.901
20.8579 288.949
20.8586 288.972
20.8593 289.008
20.86 289.081
20.8606 289.099
20.8613 289.138
20.862 289.173
20.8627 289.213
20.8634 289.247
20.8641 289.266
20.8648 289.3
20.8655 289.356
20.8662 289.379
20.8669 289.412
20.8676 289.449
20.8683 289.486
20.869 289.523
20.8697 289.576
20.8704 289.602
20.8711 289.633
20.8718 289.679
20.8725 289.704
20.8731 289.74
20.8738 289.76
20.8745 289.815
20.8752 289.817
20.8759 289.863
20.8766 289.888
20.8773 289.916
20.878 289.945
20.8787 289.968
20.8794 290.012
20.8801 290.032
20.8808 290.093
20.8815 290.119
20.8822 290.126
20.8829 290.162
20.8836 290.202
20.8843 290.236
20.885 290.248
20.8857 290.294
20.8864 290.298
20.887 290.348
20.8877 290.366
20.8884 290.381
20.8891 290.416
20.8898 290.44
20.8905 290.475
20.8912 290.497
20.8919 290.515
20.8926 290.574
20.8933 290.595
20.894 290.608
20.8947 290.654
20.8954 290.66
20.8962 290.709
20.8969 290.73
20.8976 290.747
20.8983 290.756
20.899 290.789
20.8997 290.81
20.9004 290.826
20.9011 290.86
20.9018 290.897
20.9025 290.9
20.9032 290.915
20.9039 290.955
20.9046 290.956
20.9053 290.998
20.9059 291.014
20.9066 291.033
20.9073 291.048
20.908 291.089
20.9087 291.121
20.9094 291.138
20.9101 291.145
20.9108 291.176
20.9115 291.192
20.9122 291.212
20.9129 291.245
20.9136 291.254
20.9143 291.286
20.915 291.302
20.9157 291.307
20.9164 291.344
20.9171 291.346
20.9178 291.361
20.9184 291.383
20.9191 291.42
20.9198 291.417
20.9205 291.452
20.9212 291.452
20.9219 291.471
20.9226 291.493
20.9233 291.509
20.924 291.518
20.9247 291.528
20.9254 291.557
20.9261 291.598
20.9268 291.603
20.9275 291.634
20.9282 291.637
20.9289 291.671
20.9296 291.676
20.9303 291.691
20.9309 291.716
20.9316 291.746
20.9323 291.746
20.933 291.763
20.9337 291.779
20.9344 291.784
20.9351 291.801
20.9358 291.817
20.9365 291.836
20.9372 291.858
20.938 291.87
20.9387 291.873
20.9394 291.894
20.9401 291.91
20.9408 291.913
20.9415 291.935
20.9422 291.949
20.9429 291.964
20.9436 291.982
20.9443 291.997
20.945 292.024
20.9457 292.006
20.9464 292.024
20.9471 292.059
20.9478 292.058
20.9485 292.094
20.9492 292.112
20.9498 292.132
20.9505 292.133
20.9512 292.147
20.9519 292.165
20.9526 292.17
20.9533 292.172
20.954 292.183
20.9547 292.202
20.9554 292.223
20.9561 292.206
20.9568 292.239
20.9575 292.244
20.9582 292.26
20.9589 292.274
20.9596 292.279
20.9603 292.298
20.961 292.317
20.9617 292.317
20.9623 292.34
20.963 292.32
20.9637 292.353
20.9644 292.371
20.9651 292.374
20.9658 292.389
20.9665 292.395
20.9672 292.409
20.9679 292.409
20.9686 292.441
20.9693 292.438
20.97 292.461
20.9707 292.475
20.9714 292.497
20.9721 292.487
20.9728 292.482
20.9735 292.512
20.9742 292.516
20.9748 292.524
20.9755 292.518
20.9762 292.537
20.9769 292.533
20.9776 292.552
20.9783 292.573
20.979 292.559
20.9799 292.573
20.9806 292.611
20.9812 292.611
20.9819 292.625
20.9826 292.647
20.9833 292.646
20.984 292.651
20.9847 292.652
20.9854 292.681
20.9861 292.674
20.9868 292.701
20.9875 292.699
20.9882 292.701
20.9889 292.718
20.9896 292.7
20.9903 292.731
20.991 292.735
20.9917 292.751
20.9924 292.754
20.9931 292.765
20.9937 292.756
20.9944 292.779
20.9951 292.774
20.9958 292.791
20.9965 292.797
20.9972 292.806
20.9979 292.81
20.9986 292.811
20.9993 292.81